%OpenBCI Raw EEG Data
%
%Sample Rate = 250.0 Hz
%First Column = SampleIndex
%Other Columns = EEG data in microvolts with optional columns at end being unscaled Aux data
0, 187500.00, 187500.00, 187500.00, 35471.75, -56840.02, -103044.82, -187500.02, -187500.02, -128.00, -208.00, 8640.00
1, 187500.00, 187500.00, 187500.00, 35461.55, -56943.01, -103110.85, -187500.02, -187500.02, 0.00, 0.00, 0.00
2, 187500.00, 187500.00, 187500.00, 35484.45, -56976.20, -103071.24, -187500.02, -187500.02, 0.00, 0.00, 0.00
3, 187500.00, 187500.00, 187500.00, 35487.19, -57011.18, -103059.13, -187500.02, -187500.02, 0.00, 0.00, 0.00
4, 187500.00, 187500.00, 187500.00, 35457.67, -57140.55, -103160.02, -187500.02, -187500.02, 0.00, 0.00, 0.00
5, 187500.00, 187500.00, 187500.00, 35435.47, -57262.39, -103247.87, -187500.02, -187500.02, 0.00, 0.00, 0.00
6, 187500.00, 187500.00, 187500.00, 35456.17, -57291.68, -103229.74, -187500.02, -187500.02, 0.00, 0.00, 0.00
7, 187500.00, 187500.00, 187500.00, 35464.35, -57320.49, -103221.85, -187500.02, -187500.02, -128.00, -256.00, 8640.00
8, 187500.00, 187500.00, 187500.00, 35433.64, -57430.73, -103324.42, -187500.02, -187500.02, 0.00, 0.00, 0.00
9, 187500.00, 187500.00, 187500.00, 35411.60, -57570.29, -103435.11, -187500.02, -187500.02, 0.00, 0.00, 0.00
10, 187500.00, 187500.00, 187500.00, 35435.18, -57634.48, -103435.29, -187500.02, -187500.02, 0.00, 0.00, 0.00
11, 187500.00, 187500.00, 187500.00, 35438.73, -57655.03, -103395.05, -187500.02, -187500.02, 0.00, 0.00, 0.00
12, 187500.00, 187500.00, 187500.00, 35176.41, -57753.53, -103476.77, -187500.02, -187500.02, 0.00, 0.00, 0.00
13, 187500.00, 187500.00, 187500.00, 34772.96, -57930.33, -103632.56, -187500.02, -187500.02, 0.00, 0.00, 0.00
14, 187500.00, 187500.00, 187500.00, 35118.75, -57972.40, -103591.73, -187500.02, -187500.02, 0.00, 0.00, 0.00
15, 187500.00, 187500.00, 187500.00, 35683.84, -57927.47, -103477.22, -187500.02, -187500.02, 0.00, 0.00, 0.00
16, 187500.00, 187500.00, 187500.00, 35462.56, -58008.54, -103557.91, -187500.02, -187500.02, 0.00, 0.00, 0.00
17, 187500.00, 187500.00, 187500.00, 34910.36, -58206.38, -103747.05, -187500.02, -187500.02, -128.00, -192.00, 8624.00
18, 187500.00, 187500.00, 187500.00, 35100.98, -58285.91, -103754.18, -187500.02, -187500.02, 0.00, 0.00, 0.00
19, 187500.00, 187500.00, 187500.00, 35717.82, -58219.34, -103620.05, -187500.02, -187500.02, 0.00, 0.00, 0.00
20, 187500.00, 187500.00, 187500.00, 35646.89, -58294.11, -103661.77, -187500.02, -187500.02, 0.00, 0.00, 0.00
21, 187500.00, 187500.00, 187500.00, 35046.17, -58494.60, -103856.39, -187500.02, -187500.02, 0.00, 0.00, 0.00
22, 187500.00, 187500.00, 187500.00, 35062.60, -58583.65, -103909.34, -187500.02, -187500.02, 0.00, 0.00, 0.00
23, 187500.00, 187500.00, 187500.00, 35691.91, -58532.91, -103787.73, -187500.02, -187500.02, 0.00, 0.00, 0.00
24, 187500.00, 187500.00, 187500.00, 35773.52, -58558.59, -103776.64, -187500.02, -187500.02, 0.00, 0.00, 0.00
25, 187500.00, 187500.00, 187500.00, 35182.16, -58727.69, -103961.73, -187500.02, -187500.02, 0.00, 0.00, 0.00
26, 187500.00, 187500.00, 187500.00, 35035.82, -58867.36, -104066.27, -187500.02, -187500.02, 0.00, 0.00, 0.00
27, 187500.00, 187500.00, 187500.00, 35631.43, -58840.12, -103961.11, -187500.02, -187500.02, -128.00, -272.00, 8720.00
28, 187500.00, 187500.00, 187500.00, 35870.37, -58858.64, -103944.57, -187500.02, -187500.02, 0.00, 0.00, 0.00
29, 187500.00, 187500.00, 187500.00, 35327.22, -59042.06, -104139.92, -187500.02, -187500.02, 0.00, 0.00, 0.00
30, 187500.00, 187500.00, 187500.00, 35024.11, -59182.86, -104265.27, -187500.02, -187500.02, 0.00, 0.00, 0.00
31, 187500.00, 187500.00, 187500.00, 35541.51, -59161.64, -104173.79, -187500.02, -187500.02, 0.00, 0.00, 0.00
32, 187500.00, 187500.00, 187500.00, 35801.10, -59129.32, -104114.06, -187500.02, -187500.02, 0.00, 0.00, 0.00
33, 187500.00, 187500.00, 187500.00, 35490.41, -59267.93, -104232.35, -187500.02, -187500.02, 0.00, 0.00, 0.00
34, 187500.00, 187500.00, 187500.00, 35436.36, -59387.15, -104321.53, -187500.02, -187500.02, 0.00, 0.00, 0.00
35, 187500.00, 187500.00, 187500.00, 35470.12, -59437.62, -104310.67, -187500.02, -187500.02, 0.00, 0.00, 0.00
36, 187500.00, 187500.00, 187500.00, 35487.44, -59489.43, -104299.92, -187500.02, -187500.02, 0.00, 0.00, 0.00
37, 187500.00, 187500.00, 187500.00, 35459.03, -59584.16, -104380.16, -187500.02, -187500.02, -160.00, -224.00, 8704.00
38, 187500.00, 187500.00, 187500.00, 35429.84, -59732.24, -104510.72, -187500.02, -187500.02, 0.00, 0.00, 0.00
39, 187500.00, 187500.00, 187500.00, 35438.78, -59795.43, -104532.51, -187500.02, -187500.02, 0.00, 0.00, 0.00
40, 187500.00, 187500.00, 187500.00, 35464.02, -59824.98, -104514.23, -187500.02, -187500.02, 0.00, 0.00, 0.00
41, 187500.00, 187500.00, 187500.00, 35453.62, -59911.86, -104561.32, -187500.02, -187500.02, 0.00, 0.00, 0.00
42, 187500.00, 187500.00, 187500.00, 35424.54, -60070.69, -104681.84, -187500.02, -187500.02, 0.00, 0.00, 0.00
43, 187500.00, 187500.00, 187500.00, 35427.20, -60155.02, -104717.02, -187500.02, -187500.02, 0.00, 0.00, 0.00
44, 187500.00, 187500.00, 187500.00, 35453.09, -60156.97, -104668.39, -187500.02, -187500.02, 0.00, 0.00, 0.00
45, 187500.00, 187500.00, 187500.00, 35452.68, -60198.95, -104679.85, -187500.02, -187500.02, 0.00, 0.00, 0.00
46, 187500.00, 187500.00, 187500.00, 35426.87, -60337.91, -104790.63, -187500.02, -187500.02, 0.00, 0.00, 0.00
47, 187500.00, 187500.00, 187500.00, 35419.55, -60434.06, -104844.05, -187500.02, -187500.02, -208.00, -256.00, 8672.00
48, 187500.00, 187500.00, 187500.00, 35445.02, -60437.82, -104798.48, -187500.02, -187500.02, 0.00, 0.00, 0.00
49, 187500.00, 187500.00, 187500.00, 35451.34, -60493.30, -104825.52, -187500.02, -187500.02, 0.00, 0.00, 0.00
50, 187500.00, 187500.00, 187500.00, 35425.70, -60603.89, -104940.85, -187500.02, -187500.02, 0.00, 0.00, 0.00
51, 187500.00, 187500.00, 187500.00, 35418.13, -60719.27, -105021.30, -187500.02, -187500.02, 0.00, 0.00, 0.00
52, 187500.00, 187500.00, 187500.00, 35446.69, -60761.14, -105002.19, -187500.02, -187500.02, 0.00, 0.00, 0.00
53, 187500.00, 187500.00, 187500.00, 35459.61, -60779.62, -104979.28, -187500.02, -187500.02, 0.00, 0.00, 0.00
54, 187500.00, 187500.00, 187500.00, 35437.68, -60876.20, -105058.36, -187500.02, -187500.02, 0.00, 0.00, 0.00
55, 187500.00, 187500.00, 187500.00, 35421.55, -61012.08, -105154.78, -187500.02, -187500.02, 0.00, 0.00, 0.00
56, 187500.00, 187500.00, 187500.00, 35440.52, -61049.88, -105152.33, -187500.02, -187500.02, 0.00, 0.00, 0.00
57, 187500.00, 187500.00, 187500.00, 35458.80, -61070.82, -105133.02, -187500.02, -187500.02, -176.00, -224.00, 8672.00
58, 187500.00, 187500.00, 187500.00, 35442.87, -61184.21, -105207.69, -187500.02, -187500.02, 0.00, 0.00, 0.00
59, 187500.00, 187500.00, 187500.00, 35420.83, -61313.83, -105323.34, -187500.02, -187500.02, 0.00, 0.00, 0.00
60, 187500.00, 187500.00, 187500.00, 35443.29, -61382.34, -105323.02, -187500.02, -187500.02, 0.00, 0.00, 0.00
61, 187500.00, 187500.00, 187500.00, 35467.93, -61406.48, -105276.66, -187500.02, -187500.02, 0.00, 0.00, 0.00
62, 187500.00, 187500.00, 187500.00, 35451.95, -61498.01, -105343.37, -187500.02, -187500.02, 0.00, 0.00, 0.00
63, 187500.00, 187500.00, 187500.00, 35423.36, -61625.64, -105458.74, -187500.02, -187500.02, 0.00, 0.00, 0.00
64, 187500.00, 187500.00, 187500.00, 35431.05, -61700.36, -105489.08, -187500.02, -187500.02, 0.00, 0.00, 0.00
65, 187500.00, 187500.00, 187500.00, 35459.72, -61714.89, -105449.29, -187500.02, -187500.02, 0.00, 0.00, 0.00
66, 187500.00, 187500.00, 187500.00, 35455.41, -61784.78, -105490.66, -187500.02, -187500.02, 0.00, 0.00, 0.00
67, 187500.00, 187500.00, 187500.00, 35427.36, -61897.21, -105597.77, -187500.02, -187500.02, -160.00, -272.00, 8624.00
68, 187500.00, 187500.00, 187500.00, 35428.43, -62000.52, -105657.50, -187500.02, -187500.02, 0.00, 0.00, 0.00
69, 187500.00, 187500.00, 187500.00, 35452.21, -62024.93, -105634.66, -187500.02, -187500.02, 0.00, 0.00, 0.00
70, 187500.00, 187500.00, 187500.00, 35453.44, -62073.92, -105660.54, -187500.02, -187500.02, 0.00, 0.00, 0.00
71, 187500.00, 187500.00, 187500.00, 35426.24, -62175.69, -105768.36, -187500.02, -187500.02, 0.00, 0.00, 0.00
72, 187500.00, 187500.00, 187500.00, 35418.30, -62267.24, -105820.80, -187500.02, -187500.02, 0.00, 0.00, 0.00
73, 187500.00, 187500.00, 187500.00, 35444.30, -62292.50, -105782.16, -187500.02, -187500.02, 0.00, 0.00, 0.00
74, 187500.00, 187500.00, 187500.00, 35455.66, -62363.33, -105800.48, -187500.02, -187500.02, 0.00, 0.00, 0.00
75, 187500.00, 187500.00, 187500.00, 35430.09, -62501.46, -105897.87, -187500.02, -187500.02, 0.00, 0.00, 0.00
76, 187500.00, 187500.00, 187500.00, 35411.49, -62607.88, -105965.75, -187500.02, -187500.02, 0.00, 0.00, 0.00
77, 187500.00, 187500.00, 187500.00, 35430.87, -62632.69, -105950.69, -187500.02, -187500.02, -144.00, -288.00, 8688.00
78, 187500.00, 187500.00, 187500.00, 35443.32, -62657.10, -105936.55, -187500.02, -187500.02, 0.00, 0.00, 0.00
79, 187500.00, 187500.00, 187500.00, 35416.61, -62732.25, -106016.47, -187500.02, -187500.02, 0.00, 0.00, 0.00
80, 187500.00, 187500.00, 187500.00, 35404.85, -62882.34, -106144.34, -187500.02, -187500.02, 0.00, 0.00, 0.00
81, 187500.00, 187500.00, 187500.00, 35421.57, -62960.13, -106146.48, -187500.02, -187500.02, 0.00, 0.00, 0.00
82, 187500.00, 187500.00, 187500.00, 35438.00, -62986.21, -106106.27, -187500.02, -187500.02, 0.00, 0.00, 0.00
83, 187500.00, 187500.00, 187500.00, 35416.65, -63053.73, -106158.51, -187500.02, -187500.02, 0.00, 0.00, 0.00
84, 187500.00, 187500.00, 187500.00, 35392.33, -63165.27, -106271.73, -187500.02, -187500.02, 0.00, 0.00, 0.00
85, 187500.00, 187500.00, 187500.00, 35413.59, -63242.34, -106308.16, -187500.02, -187500.02, 0.00, 0.00, 0.00
86, 187500.00, 187500.00, 187500.00, 35438.71, -63265.85, -106274.80, -187500.02, -187500.02, 0.00, 0.00, 0.00
87, 187500.00, 187500.00, 187500.00, 35429.23, -63347.73, -106314.02, -187500.02, -187500.02, -112.00, -240.00, 8672.00
88, 187500.00, 187500.00, 187500.00, 35400.63, -63452.00, -106410.70, -187500.02, -187500.02, 0.00, 0.00, 0.00
89, 187500.00, 187500.00, 187500.00, 35408.31, -63540.55, -106446.91, -187500.02, -187500.02, 0.00, 0.00, 0.00
90, 187500.00, 187500.00, 187500.00, 35433.62, -63559.60, -106403.58, -187500.02, -187500.02, 0.00, 0.00, 0.00
91, 187500.00, 187500.00, 187500.00, 35432.10, -63621.15, -106432.79, -187500.02, -187500.02, 0.00, 0.00, 0.00
92, 187500.00, 187500.00, 187500.00, 35401.94, -63754.91, -106545.30, -187500.02, -187500.02, 0.00, 0.00, 0.00
93, 187500.00, 187500.00, 187500.00, 35395.48, -63830.07, -106585.02, -187500.02, -187500.02, 0.00, 0.00, 0.00
94, 187500.00, 187500.00, 187500.00, 35417.43, -63843.04, -106545.58, -187500.02, -187500.02, 0.00, 0.00, 0.00
95, 187500.00, 187500.00, 187500.00, 35422.57, -63883.52, -106571.02, -187500.02, -187500.02, 0.00, 0.00, 0.00
96, 187500.00, 187500.00, 187500.00, 35400.20, -64037.01, -106706.66, -187500.02, -187500.02, 0.00, 0.00, 0.00
97, 187500.00, 187500.00, 187500.00, 35389.76, -64156.05, -106778.26, -187500.02, -187500.02, -128.00, -224.00, 8672.00
98, 187500.00, 187500.00, 187500.00, 35413.63, -64189.67, -106735.63, -187500.02, -187500.02, 0.00, 0.00, 0.00
99, 187500.00, 187500.00, 187500.00, 35420.79, -64192.71, -106699.00, -187500.02, -187500.02, 0.00, 0.00, 0.00
100, 187500.00, 187500.00, 187500.00, 35398.88, -64301.65, -106796.27, -187500.02, -187500.02, 0.00, 0.00, 0.00
101, 187500.00, 187500.00, 187500.00, 35386.07, -64449.06, -106921.78, -187500.02, -187500.02, 0.00, 0.00, 0.00
102, 187500.00, 187500.00, 187500.00, 35407.62, -64520.61, -106921.82, -187500.02, -187500.02, 0.00, 0.00, 0.00
103, 187500.00, 187500.00, 187500.00, 35420.54, -64532.52, -106871.84, -187500.02, -187500.02, 0.00, 0.00, 0.00
104, 187500.00, 187500.00, 187500.00, 35399.13, -64620.77, -106933.40, -187500.02, -187500.02, 0.00, 0.00, 0.00
105, 187500.00, 187500.00, 187500.00, 35377.80, -64743.82, -107047.69, -187500.02, -187500.02, 0.00, 0.00, 0.00
106, 187500.00, 187500.00, 187500.00, 35392.55, -64788.74, -107044.55, -187500.02, -187500.02, 0.00, 0.00, 0.00
107, 187500.00, 187500.00, 187500.00, 35412.11, -64776.38, -106996.59, -187500.02, -187500.02, -128.00, -208.00, 8720.00
108, 187500.00, 187500.00, 187500.00, 35401.14, -64862.66, -107068.18, -187500.02, -187500.02, 0.00, 0.00, 0.00
109, 187500.00, 187500.00, 187500.00, 35376.06, -64994.22, -107189.55, -187500.02, -187500.02, 0.00, 0.00, 0.00
110, 187500.00, 187500.00, 187500.00, 35388.09, -65075.40, -107218.09, -187500.02, -187500.02, 0.00, 0.00, 0.00
111, 187500.00, 187500.00, 187500.00, 35416.54, -65102.25, -107187.12, -187500.02, -187500.02, 0.00, 0.00, 0.00
112, 187500.00, 187500.00, 187500.00, 35415.36, -65177.44, -107226.26, -187500.02, -187500.02, 0.00, 0.00, 0.00
113, 187500.00, 187500.00, 187500.00, 35398.70, -65313.07, -107346.64, -187500.02, -187500.02, 0.00, 0.00, 0.00
114, 187500.00, 187500.00, 187500.00, 35404.45, -65413.54, -107398.83, -187500.02, -187500.02, 0.00, 0.00, 0.00
115, 187500.00, 187500.00, 187500.00, 35431.56, -65433.59, -107356.52, -187500.02, -187500.02, 0.00, 0.00, 0.00
116, 187500.00, 187500.00, 187500.00, 35433.95, -65489.85, -107368.19, -187500.02, -187500.02, 0.00, 0.00, 0.00
117, 187500.00, 187500.00, 187500.00, 35411.00, -65631.31, -107491.41, -187500.02, -187500.02, -144.00, -256.00, 8704.00
118, 187500.00, 187500.00, 187500.00, 35401.43, -65697.01, -107541.97, -187500.02, -187500.02, 0.00, 0.00, 0.00
119, 187500.00, 187500.00, 187500.00, 35430.00, -65691.59, -107502.74, -187500.02, -187500.02, 0.00, 0.00, 0.00
120, 187500.00, 187500.00, 187500.00, 35438.71, -65744.63, -107522.44, -187500.02, -187500.02, 0.00, 0.00, 0.00
121, 187500.00, 187500.00, 187500.00, 35412.07, -65877.00, -107640.01, -187500.02, -187500.02, 0.00, 0.00, 0.00
122, 187500.00, 187500.00, 187500.00, 35401.21, -66010.09, -107733.70, -187500.02, -187500.02, 0.00, 0.00, 0.00
123, 187500.00, 187500.00, 187500.00, 35422.64, -66050.61, -107707.84, -187500.02, -187500.02, 0.00, 0.00, 0.00
124, 187500.00, 187500.00, 187500.00, 35433.41, -66063.13, -107672.06, -187500.02, -187500.02, 0.00, 0.00, 0.00
125, 187500.00, 187500.00, 187500.00, 35414.68, -66186.33, -107763.03, -187500.02, -187500.02, 0.00, 0.00, 0.00
126, 187500.00, 187500.00, 187500.00, 35401.56, -66328.04, -107865.70, -187500.02, -187500.02, 0.00, 0.00, 0.00
127, 187500.00, 187500.00, 187500.00, 35425.03, -66382.24, -107854.63, -187500.02, -187500.02, -128.00, -240.00, 8672.00
128, 187500.00, 187500.00, 187500.00, 35439.92, -66375.34, -107819.58, -187500.02, -187500.02, 0.00, 0.00, 0.00
129, 187500.00, 187500.00, 187500.00, 35420.27, -66457.30, -107888.09, -187500.02, -187500.02, 0.00, 0.00, 0.00
130, 187500.00, 187500.00, 187500.00, 35397.25, -66602.09, -107995.78, -187500.02, -187500.02, 0.00, 0.00, 0.00
131, 187500.00, 187500.00, 187500.00, 35410.86, -66667.95, -108010.69, -187500.02, -187500.02, 0.00, 0.00, 0.00
132, 187500.00, 187500.00, 187500.00, 35427.47, -66683.30, -107984.54, -187500.02, -187500.02, 0.00, 0.00, 0.00
133, 187500.00, 187500.00, 187500.00, 35409.25, -66762.24, -108056.80, -187500.02, -187500.02, 0.00, 0.00, 0.00
134, 187500.00, 187500.00, 187500.00, 35390.01, -66908.65, -108188.95, -187500.02, -187500.02, 0.00, 0.00, 0.00
135, 187500.00, 187500.00, 187500.00, 35404.18, -66993.70, -108224.93, -187500.02, -187500.02, 0.00, 0.00, 0.00
136, 187500.00, 187500.00, 187500.00, 35425.97, -66993.52, -108189.93, -187500.02, -187500.02, 0.00, 0.00, 0.00
137, 187500.00, 187500.00, 187500.00, 35411.29, -67034.49, -108213.73, -187500.02, -187500.02, -176.00, -208.00, 8720.00
138, 187500.00, 187500.00, 187500.00, 35388.27, -67175.06, -108315.14, -187500.02, -187500.02, 0.00, 0.00, 0.00
139, 187500.00, 187500.00, 187500.00, 35407.24, -67269.52, -108358.28, -187500.02, -187500.02, 0.00, 0.00, 0.00
140, 187500.00, 187500.00, 187500.00, 35445.08, -67302.48, -108302.34, -187500.02, -187500.02, 0.00, 0.00, 0.00
141, 187500.00, 187500.00, 187500.00, 35433.26, -67356.22, -108310.45, -187500.02, -187500.02, 0.00, 0.00, 0.00
142, 187500.00, 187500.00, 187500.00, 35401.32, -67474.98, -108421.20, -187500.02, -187500.02, 0.00, 0.00, 0.00
143, 187500.00, 187500.00, 187500.00, 35410.62, -67570.80, -108489.13, -187500.02, -187500.02, 0.00, 0.00, 0.00
144, 187500.00, 187500.00, 187500.00, 35443.94, -67582.30, -108445.43, -187500.02, -187500.02, 0.00, 0.00, 0.00
145, 187500.00, 187500.00, 187500.00, 35448.43, -67641.95, -108462.48, -187500.02, -187500.02, 0.00, 0.00, 0.00
146, 187500.00, 187500.00, 187500.00, 35415.13, -67761.39, -108565.46, -187500.02, -187500.02, 0.00, 0.00, 0.00
147, 187500.00, 187500.00, 187500.00, 35405.90, -67858.33, -108622.95, -187500.02, -187500.02, 0.00, 0.00, 0.00
148, 187500.00, 187500.00, 187500.00, 35432.52, -67893.24, -108583.66, -187500.02, -187500.02, -128.00, -208.00, 8720.00
149, 187500.00, 187500.00, 187500.00, 35441.57, -67909.58, -108572.19, -187500.02, -187500.02, 0.00, 0.00, 0.00
150, 187500.00, 187500.00, 187500.00, 35418.86, -68019.33, -108680.37, -187500.02, -187500.02, 0.00, 0.00, 0.00
151, 187500.00, 187500.00, 187500.00, 35404.96, -68147.38, -108798.86, -187500.02, -187500.02, 0.00, 0.00, 0.00
152, 187500.00, 187500.00, 187500.00, 35431.34, -68221.08, -108816.65, -187500.02, -187500.02, 0.00, 0.00, 0.00
153, 187500.00, 187500.00, 187500.00, 35447.83, -68235.96, -108793.55, -187500.02, -187500.02, 0.00, 0.00, 0.00
154, 187500.00, 187500.00, 187500.00, 35427.09, -68299.62, -108835.83, -187500.02, -187500.02, 0.00, 0.00, 0.00
155, 187500.00, 187500.00, 187500.00, 35405.48, -68428.81, -108922.38, -187500.02, -187500.02, 0.00, 0.00, 0.00
156, 187500.00, 187500.00, 187500.00, 35422.82, -68489.95, -108919.02, -187500.02, -187500.02, 0.00, 0.00, 0.00
157, 187500.00, 187500.00, 187500.00, 35455.70, -68516.07, -108886.05, -187500.02, -187500.02, 0.00, 0.00, 0.00
158, 187500.00, 187500.00, 187500.00, 35442.36, -68589.66, -108940.43, -187500.02, -187500.02, -160.00, -240.00, 8720.00
159, 187500.00, 187500.00, 187500.00, 35415.87, -68725.48, -109054.36, -187500.02, -187500.02, 0.00, 0.00, 0.00
160, 187500.00, 187500.00, 187500.00, 35419.94, -68799.92, -109075.75, -187500.02, -187500.02, 0.00, 0.00, 0.00
161, 187500.00, 187500.00, 187500.00, 35441.75, -68776.00, -108999.44, -187500.02, -187500.02, 0.00, 0.00, 0.00
162, 187500.00, 187500.00, 187500.00, 35442.00, -68836.24, -109039.56, -187500.02, -187500.02, 0.00, 0.00, 0.00
163, 187500.00, 187500.00, 187500.00, 35409.27, -68936.33, -109148.37, -187500.02, -187500.02, 0.00, 0.00, 0.00
164, 187500.00, 187500.00, 187500.00, 35414.04, -69029.09, -109197.84, -187500.02, -187500.02, 0.00, 0.00, 0.00
165, 187500.00, 187500.00, 187500.00, 35443.99, -69064.14, -109165.09, -187500.02, -187500.02, 0.00, 0.00, 0.00
166, 187500.00, 187500.00, 187500.00, 35445.17, -69103.26, -109179.62, -187500.02, -187500.02, 0.00, 0.00, 0.00
167, 187500.00, 187500.00, 187500.00, 35420.72, -69213.23, -109297.70, -187500.02, -187500.02, 0.00, 0.00, 0.00
168, 187500.00, 187500.00, 187500.00, 35418.19, -69336.98, -109393.34, -187500.02, -187500.02, -208.00, -224.00, 8704.00
169, 187500.00, 187500.00, 187500.00, 35446.54, -69380.98, -109380.07, -187500.02, -187500.02, 0.00, 0.00, 0.00
170, 187500.00, 187500.00, 187500.00, 35458.34, -69416.80, -109380.76, -187500.02, -187500.02, 0.00, 0.00, 0.00
171, 187500.00, 187500.00, 187500.00, 35438.33, -69516.13, -109468.94, -187500.02, -187500.02, 0.00, 0.00, 0.00
172, 187500.00, 187500.00, 187500.00, 35432.59, -69667.23, -109568.27, -187500.02, -187500.02, 0.00, 0.00, 0.00
173, 187500.00, 187500.00, 187500.00, 35455.23, -69722.30, -109549.23, -187500.02, -187500.02, 0.00, 0.00, 0.00
174, 187500.00, 187500.00, 187500.00, 35468.39, -69742.38, -109528.77, -187500.02, -187500.02, 0.00, 0.00, 0.00
175, 187500.00, 187500.00, 187500.00, 35449.33, -69841.51, -109610.88, -187500.02, -187500.02, 0.00, 0.00, 0.00
176, 187500.00, 187500.00, 187500.00, 35426.84, -69959.84, -109707.72, -187500.02, -187500.02, 0.00, 0.00, 0.00
177, 187500.00, 187500.00, 187500.00, 35442.33, -70007.09, -109701.77, -187500.02, -187500.02, 0.00, 0.00, 0.00
178, 187500.00, 187500.00, 187500.00, 35461.98, -70012.39, -109661.63, -187500.02, -187500.02, -192.00, -240.00, 8720.00
179, 187500.00, 187500.00, 187500.00, 35450.51, -70111.19, -109731.55, -187500.02, -187500.02, 0.00, 0.00, 0.00
180, 187500.00, 187500.00, 187500.00, 35429.82, -70233.96, -109833.20, -187500.02, -187500.02, 0.00, 0.00, 0.00
181, 187500.00, 187500.00, 187500.00, 35443.74, -70292.91, -109839.95, -187500.02, -187500.02, 0.00, 0.00, 0.00
182, 187500.00, 187500.00, 187500.00, 35465.58, -70305.82, -109806.34, -187500.02, -187500.02, 0.00, 0.00, 0.00
183, 187500.00, 187500.00, 187500.00, 35454.98, -70367.88, -109846.64, -187500.02, -187500.02, 0.00, 0.00, 0.00
184, 187500.00, 187500.00, 187500.00, 35427.27, -70469.26, -109954.11, -187500.02, -187500.02, 0.00, 0.00, 0.00
185, 187500.00, 187500.00, 187500.00, 35434.29, -70549.52, -109987.32, -187500.02, -187500.02, 0.00, 0.00, 0.00
186, 187500.00, 187500.00, 187500.00, 35459.95, -70563.36, -109948.48, -187500.02, -187500.02, 0.00, 0.00, 0.00
187, 187500.00, 187500.00, 187500.00, 35458.29, -70610.48, -109984.48, -187500.02, -187500.02, 0.00, 0.00, 0.00
188, 187500.00, 187500.00, 187500.00, 35428.99, -70723.13, -110090.30, -187500.02, -187500.02, -192.00, -272.00, 8688.00
189, 187500.00, 187500.00, 187500.00, 35427.65, -70834.71, -110160.05, -187500.02, -187500.02, 0.00, 0.00, 0.00
190, 187500.00, 187500.00, 187500.00, 35450.45, -70859.85, -110124.52, -187500.02, -187500.02, 0.00, 0.00, 0.00
191, 187500.00, 187500.00, 187500.00, 35457.58, -70919.45, -110130.53, -187500.02, -187500.02, 0.00, 0.00, 0.00
192, 187500.00, 187500.00, 187500.00, 35428.50, -71061.49, -110248.52, -187500.02, -187500.02, 0.00, 0.00, 0.00
193, 187500.00, 187500.00, 187500.00, 35412.85, -71154.25, -110317.27, -187500.02, -187500.02, 0.00, 0.00, 0.00
194, 187500.00, 187500.00, 187500.00, 35434.96, -71180.89, -110299.13, -187500.02, -187500.02, 0.00, 0.00, 0.00
195, 187500.00, 187500.00, 187500.00, 35441.44, -71204.03, -110287.93, -187500.02, -187500.02, 0.00, 0.00, 0.00
196, 187500.00, 187500.00, 187500.00, 35414.95, -71291.24, -110374.20, -187500.02, -187500.02, 0.00, 0.00, 0.00
197, 187500.00, 187500.00, 187500.00, 35400.78, -71420.33, -110479.44, -187500.02, -187500.02, 0.00, 0.00, 0.00
198, 187500.00, 187500.00, 187500.00, 35422.66, -71474.93, -110474.92, -187500.02, -187500.02, -176.00, -272.00, 8656.00
199, 187500.00, 187500.00, 187500.00, 35447.59, -71527.32, -110474.48, -187500.02, -187500.02, 0.00, 0.00, 0.00
200, 187500.00, 187500.00, 187500.00, 35419.49, -71621.42, -110546.78, -187500.02, -187500.02, 0.00, 0.00, 0.00
201, 187500.00, 187500.00, 187500.00, 35401.50, -71744.74, -110621.62, -187500.02, -187500.02, 0.00, 0.00, 0.00
202, 187500.00, 187500.00, 187500.00, 35417.70, -71816.91, -110612.84, -187500.02, -187500.02, 0.00, 0.00, 0.00
203, 187500.00, 187500.00, 187500.00, 35433.77, -71808.02, -110570.19, -187500.02, -187500.02, 0.00, 0.00, 0.00
204, 187500.00, 187500.00, 187500.00, 35418.21, -71854.13, -110629.42, -187500.02, -187500.02, 0.00, 0.00, 0.00
205, 187500.00, 187500.00, 187500.00, 35397.52, -71978.07, -110742.56, -187500.02, -187500.02, 0.00, 0.00, 0.00
206, 187500.00, 187500.00, 187500.00, 35409.97, -72074.47, -110758.73, -187500.02, -187500.02, 0.00, 0.00, 0.00
207, 187500.00, 187500.00, 187500.00, 35439.09, -72100.27, -110721.02, -187500.02, -187500.02, 0.00, 0.00, 0.00
208, 187500.00, 187500.00, 187500.00, 35434.89, -72191.30, -110782.87, -187500.02, -187500.02, -144.00, -256.00, 8752.00
209, 187500.00, 187500.00, 187500.00, 35409.61, -72315.45, -110896.90, -187500.02, -187500.02, 0.00, 0.00, 0.00
210, 187500.00, 187500.00, 187500.00, 35414.06, -72381.14, -110925.58, -187500.02, -187500.02, 0.00, 0.00, 0.00
211, 187500.00, 187500.00, 187500.00, 35447.25, -72377.34, -110877.45, -187500.02, -187500.02, 0.00, 0.00, 0.00
212, 187500.00, 187500.00, 187500.00, 35450.18, -72429.44, -110903.90, -187500.02, -187500.02, 0.00, 0.00, 0.00
213, 187500.00, 187500.00, 187500.00, 35424.94, -72547.08, -111011.63, -187500.02, -187500.02, 0.00, 0.00, 0.00
214, 187500.00, 187500.00, 187500.00, 35422.02, -72648.46, -111073.86, -187500.02, -187500.02, 0.00, 0.00, 0.00
215, 187500.00, 187500.00, 187500.00, 35449.46, -72687.67, -111062.69, -187500.02, -187500.02, 0.00, 0.00, 0.00
216, 187500.00, 187500.00, 187500.00, 35460.19, -72741.11, -111082.76, -187500.02, -187500.02, 0.00, 0.00, 0.00
217, 187500.00, 187500.00, 187500.00, 35435.52, -72862.03, -111184.79, -187500.02, -187500.02, 0.00, 0.00, 0.00
218, 187500.00, 187500.00, 187500.00, 35426.91, -72986.31, -111265.44, -187500.02, -187500.02, -160.00, -240.00, 8688.00
219, 187500.00, 187500.00, 187500.00, 35454.47, -73042.84, -111242.82, -187500.02, -187500.02, 0.00, 0.00, 0.00
220, 187500.00, 187500.00, 187500.00, 35464.86, -73058.04, -111219.04, -187500.02, -187500.02, 0.00, 0.00, 0.00
221, 187500.00, 187500.00, 187500.00, 35447.59, -73159.49, -111308.09, -187500.02, -187500.02, 0.00, 0.00, 0.00
222, 187500.00, 187500.00, 187500.00, 35430.26, -73270.67, -111395.70, -187500.02, -187500.02, 0.00, 0.00, 0.00
223, 187500.00, 187500.00, 187500.00, 35457.64, -73330.39, -111390.45, -187500.02, -187500.02, 0.00, 0.00, 0.00
224, 187500.00, 187500.00, 187500.00, 35484.93, -73365.73, -111378.47, -187500.02, -187500.02, 0.00, 0.00, 0.00
225, 187500.00, 187500.00, 187500.00, 35467.32, -73462.23, -111449.48, -187500.02, -187500.02, 0.00, 0.00, 0.00
226, 187500.00, 187500.00, 187500.00, 35447.88, -73580.30, -111535.85, -187500.02, -187500.02, 0.00, 0.00, 0.00
227, 187500.00, 187500.00, 187500.00, 35465.00, -73636.10, -111513.77, -187500.02, -187500.02, 0.00, 0.00, 0.00
228, 187500.00, 187500.00, 187500.00, 35482.72, -73647.05, -111468.34, -187500.02, -187500.02, -176.00, -224.00, 8720.00
229, 187500.00, 187500.00, 187500.00, 35470.05, -73728.10, -111535.58, -187500.02, -187500.02, 0.00, 0.00, 0.00
230, 187500.00, 187500.00, 187500.00, 35442.00, -73840.04, -111663.59, -187500.02, -187500.02, 0.00, 0.00, 0.00
231, 187500.00, 187500.00, 187500.00, 35455.81, -73926.09, -111722.53, -187500.02, -187500.02, 0.00, 0.00, 0.00
232, 187500.00, 187500.00, 187500.00, 35480.73, -73959.44, -111696.63, -187500.02, -187500.02, 0.00, 0.00, 0.00
233, 187500.00, 187500.00, 187500.00, 35472.78, -74016.50, -111706.30, -187500.02, -187500.02, 0.00, 0.00, 0.00
234, 187500.00, 187500.00, 187500.00, 35443.14, -74130.83, -111795.71, -187500.02, -187500.02, 0.00, 0.00, 0.00
235, 187500.00, 187500.00, 187500.00, 35443.92, -74222.72, -111841.42, -187500.02, -187500.02, 0.00, 0.00, 0.00
236, 187500.00, 187500.00, 187500.00, 35474.99, -74265.97, -111814.51, -187500.02, -187500.02, 0.00, 0.00, 0.00
237, 187500.00, 187500.00, 187500.00, 35474.23, -74285.77, -111809.23, -187500.02, -187500.02, 0.00, 0.00, 0.00
238, 187500.00, 187500.00, 187500.00, 35452.95, -74399.09, -111904.66, -187500.02, -187500.02, -176.00, -208.00, 8688.00
239, 187500.00, 187500.00, 187500.00, 35447.86, -74500.66, -111959.91, -187500.02, -187500.02, 0.00, 0.00, 0.00
240, 187500.00, 187500.00, 187500.00, 35478.70, -74525.27, -111942.16, -187500.02, -187500.02, 0.00, 0.00, 0.00
241, 187500.00, 187500.00, 187500.00, 35494.64, -74572.50, -111936.21, -187500.02, -187500.02, 0.00, 0.00, 0.00
242, 187500.00, 187500.00, 187500.00, 35477.43, -74679.21, -112023.90, -187500.02, -187500.02, 0.00, 0.00, 0.00
243, 187500.00, 187500.00, 187500.00, 35471.90, -74807.30, -112114.24, -187500.02, -187500.02, 0.00, 0.00, 0.00
244, 187500.00, 187500.00, 187500.00, 35494.23, -74856.98, -112083.40, -187500.02, -187500.02, 0.00, 0.00, 0.00
245, 187500.00, 187500.00, 187500.00, 35508.67, -74866.30, -112061.92, -187500.02, -187500.02, 0.00, 0.00, 0.00
246, 187500.00, 187500.00, 187500.00, 35492.42, -74956.59, -112170.70, -187500.02, -187500.02, 0.00, 0.00, 0.00
247, 187500.00, 187500.00, 187500.00, 35475.75, -75075.20, -112281.28, -187500.02, -187500.02, 0.00, 0.00, 0.00
248, 187500.00, 187500.00, 187500.00, 35496.71, -75135.19, -112291.90, -187500.02, -187500.02, -128.00, -240.00, 8640.00
249, 187500.00, 187500.00, 187500.00, 35517.10, -75163.51, -112282.58, -187500.02, -187500.02, 0.00, 0.00, 0.00
250, 187500.00, 187500.00, 187500.00, 35503.49, -75241.06, -112346.70, -187500.02, -187500.02, 0.00, 0.00, 0.00
251, 187500.00, 187500.00, 187500.00, 35484.60, -75386.20, -112450.82, -187500.02, -187500.02, 0.00, 0.00, 0.00
252, 187500.00, 187500.00, 187500.00, 35489.94, -75441.85, -112453.26, -187500.02, -187500.02, 0.00, 0.00, 0.00
253, 187500.00, 187500.00, 187500.00, 35512.47, -75446.52, -112426.68, -187500.02, -187500.02, 0.00, 0.00, 0.00
254, 187500.00, 187500.00, 187500.00, 35499.80, -75530.72, -112494.56, -187500.02, -187500.02, 0.00, 0.00, 0.00
255, 187500.00, 187500.00, 187500.00, 35463.41, -75643.27, -112608.13, -187500.02, -187500.02, 0.00, 0.00, 0.00
0, 187500.00, 187500.00, 187500.00, 35461.58, -75746.02, -112669.30, -187500.02, -187500.02, 0.00, 0.00, 0.00
1, 187500.00, 187500.00, 187500.00, 35481.47, -75789.48, -112654.20, -187500.02, -187500.02, 0.00, 0.00, 0.00
2, 187500.00, 187500.00, 187500.00, 35466.74, -75869.41, -112702.09, -187500.02, -187500.02, -128.00, -224.00, 8688.00
3, 187500.00, 187500.00, 187500.00, 35416.96, -76000.89, -112810.97, -187500.02, -187500.02, 0.00, 0.00, 0.00
4, 187500.00, 187500.00, 187500.00, 35390.70, -76089.41, -112859.19, -187500.02, -187500.02, 0.00, 0.00, 0.00
5, 187500.00, 187500.00, 187500.00, 35397.79, -76111.64, -112841.28, -187500.02, -187500.02, 0.00, 0.00, 0.00
6, 187500.00, 187500.00, 187500.00, 35382.77, -76160.28, -112861.46, -187500.02, -187500.02, 0.00, 0.00, 0.00
7, 187500.00, 187500.00, 187500.00, 35333.41, -76297.66, -112980.22, -187500.02, -187500.02, 0.00, 0.00, 0.00
8, 187500.00, 187500.00, 187500.00, 35291.88, -76421.28, -113073.80, -187500.02, -187500.02, 0.00, 0.00, 0.00
9, 187500.00, 187500.00, 187500.00, 35287.95, -76471.51, -113053.31, -187500.02, -187500.02, 0.00, 0.00, 0.00
10, 187500.00, 187500.00, 187500.00, 35273.02, -76520.44, -113040.81, -187500.02, -187500.02, 0.00, 0.00, 0.00
11, 187500.00, 187500.00, 187500.00, 35227.60, -76598.38, -113112.98, -187500.02, -187500.02, 0.00, 0.00, 0.00
12, 187500.00, 187500.00, 187500.00, 35196.91, -76704.57, -113192.56, -187500.02, -187500.02, -144.00, -288.00, 8704.00
13, 187500.00, 187500.00, 187500.00, 35196.60, -76726.18, -113167.86, -187500.02, -187500.02, 0.00, 0.00, 0.00
14, 187500.00, 187500.00, 187500.00, 35189.94, -76758.23, -113168.53, -187500.02, -187500.02, 0.00, 0.00, 0.00
15, 187500.00, 187500.00, 187500.00, 35150.44, -76870.64, -113268.18, -187500.02, -187500.02, 0.00, 0.00, 0.00
16, 187500.00, 187500.00, 187500.00, 35107.30, -77011.30, -113387.96, -187500.02, -187500.02, 0.00, 0.00, 0.00
17, 187500.00, 187500.00, 187500.00, 35094.32, -77065.33, -113393.81, -187500.02, -187500.02, 0.00, 0.00, 0.00
18, 187500.00, 187500.00, 187500.00, 35091.28, -77089.06, -113359.93, -187500.02, -187500.02, 0.00, 0.00, 0.00
19, 187500.00, 187500.00, 187500.00, 35053.10, -77175.81, -113412.91, -187500.02, -187500.02, 0.00, 0.00, 0.00
20, 187500.00, 187500.00, 187500.00, 34999.28, -77292.42, -113497.55, -187500.02, -187500.02, 0.00, 0.00, 0.00
21, 187500.00, 187500.00, 187500.00, 34978.63, -77355.38, -113518.74, -187500.02, -187500.02, 0.00, 0.00, 0.00
22, 187500.00, 187500.00, 187500.00, 34973.62, -77376.38, -113519.92, -187500.02, -187500.02, -192.00, -256.00, 8704.00
23, 187500.00, 187500.00, 187500.00, 34940.11, -77437.10, -113592.27, -187500.02, -187500.02, 0.00, 0.00, 0.00
24, 187500.00, 187500.00, 187500.00, 34888.86, -77585.74, -113732.53, -187500.02, -187500.02, 0.00, 0.00, 0.00
25, 187500.00, 187500.00, 187500.00, 34860.56, -77671.23, -113759.94, -187500.02, -187500.02, 0.00, 0.00, 0.00
26, 187500.00, 187500.00, 187500.00, 34861.81, -77687.22, -113698.94, -187500.02, -187500.02, 0.00, 0.00, 0.00
27, 187500.00, 187500.00, 187500.00, 34836.40, -77727.52, -113715.19, -187500.02, -187500.02, 0.00, 0.00, 0.00
28, 187500.00, 187500.00, 187500.00, 34785.64, -77850.32, -113821.31, -187500.02, -187500.02, 0.00, 0.00, 0.00
29, 187500.00, 187500.00, 187500.00, 34755.04, -77944.02, -113886.09, -187500.02, -187500.02, 0.00, 0.00, 0.00
30, 187500.00, 187500.00, 187500.00, 34765.57, -77983.05, -113870.20, -187500.02, -187500.02, 0.00, 0.00, 0.00
31, 187500.00, 187500.00, 187500.00, 34759.82, -78027.12, -113880.95, -187500.02, -187500.02, 0.00, 0.00, 0.00
32, 187500.00, 187500.00, 187500.00, 34715.68, -78130.95, -113966.35, -187500.02, -187500.02, -192.00, -240.00, 8704.00
33, 187500.00, 187500.00, 187500.00, 34683.96, -78254.15, -114052.48, -187500.02, -187500.02, 0.00, 0.00, 0.00
34, 187500.00, 187500.00, 187500.00, 34683.00, -78292.99, -114021.66, -187500.02, -187500.02, 0.00, 0.00, 0.00
35, 187500.00, 187500.00, 187500.00, 34678.42, -78319.37, -113991.03, -187500.02, -187500.02, 0.00, 0.00, 0.00
36, 187500.00, 187500.00, 187500.00, 34644.15, -78430.66, -114079.59, -187500.02, -187500.02, 0.00, 0.00, 0.00
37, 187500.00, 187500.00, 187500.00, 34614.11, -78561.75, -114191.41, -187500.02, -187500.02, 0.00, 0.00, 0.00
38, 187500.00, 187500.00, 187500.00, 34624.53, -78612.24, -114197.85, -187500.02, -187500.02, 0.00, 0.00, 0.00
39, 187500.00, 187500.00, 187500.00, 34642.43, -78659.61, -114182.70, -187500.02, -187500.02, 0.00, 0.00, 0.00
40, 187500.00, 187500.00, 187500.00, 34628.51, -78751.70, -114235.41, -187500.02, -187500.02, 0.00, 0.00, 0.00
41, 187500.00, 187500.00, 187500.00, 34608.52, -78864.02, -114315.02, -187500.02, -187500.02, 0.00, 0.00, 0.00
42, 187500.00, 187500.00, 187500.00, 34627.01, -78908.14, -114302.39, -187500.02, -187500.02, 0.00, 0.00, 0.00
43, 187500.00, 187500.00, 187500.00, 34660.69, -78907.34, -114247.74, -187500.02, -187500.02, -144.00, -208.00, 8720.00
44, 187500.00, 187500.00, 187500.00, 34667.13, -78975.69, -114282.07, -187500.02, -187500.02, 0.00, 0.00, 0.00
45, 187500.00, 187500.00, 187500.00, 34660.94, -79084.58, -114373.09, -187500.02, -187500.02, 0.00, 0.00, 0.00
46, 187500.00, 187500.00, 187500.00, 34692.45, -79146.48, -114389.50, -187500.02, -187500.02, 0.00, 0.00, 0.00
47, 187500.00, 187500.00, 187500.00, 34747.82, -79160.40, -114337.44, -187500.02, -187500.02, 0.00, 0.00, 0.00
48, 187500.00, 187500.00, 187500.00, 34774.80, -79199.63, -114355.01, -187500.02, -187500.02, 0.00, 0.00, 0.00
49, 187500.00, 187500.00, 187500.00, 34781.23, -79301.15, -114452.30, -187500.02, -187500.02, 0.00, 0.00, 0.00
50, 187500.00, 187500.00, 187500.00, 34814.50, -79408.19, -114492.52, -187500.02, -187500.02, 0.00, 0.00, 0.00
51, 187500.00, 187500.00, 187500.00, 34869.01, -79399.79, -114432.41, -187500.02, -187500.02, 0.00, 0.00, 0.00
52, 187500.00, 187500.00, 187500.00, 34911.79, -79439.77, -114434.87, -187500.02, -187500.02, 0.00, 0.00, 0.00
53, 187500.00, 187500.00, 187500.00, 34924.22, -79565.32, -114530.70, -187500.02, -187500.02, -176.00, -240.00, 8688.00
54, 187500.00, 187500.00, 187500.00, 34949.45, -79648.54, -114594.48, -187500.02, -187500.02, 0.00, 0.00, 0.00
55, 187500.00, 187500.00, 187500.00, 35009.07, -79677.51, -114567.86, -187500.02, -187500.02, 0.00, 0.00, 0.00
56, 187500.00, 187500.00, 187500.00, 35049.05, -79691.81, -114539.23, -187500.02, -187500.02, 0.00, 0.00, 0.00
57, 187500.00, 187500.00, 187500.00, 35056.34, -79785.02, -114621.95, -187500.02, -187500.02, 0.00, 0.00, 0.00
58, 187500.00, 187500.00, 187500.00, 35065.82, -79876.88, -114692.34, -187500.02, -187500.02, 0.00, 0.00, 0.00
59, 187500.00, 187500.00, 187500.00, 35103.66, -79893.63, -114651.28, -187500.02, -187500.02, 0.00, 0.00, 0.00
60, 187500.00, 187500.00, 187500.00, 35134.46, -79901.41, -114615.43, -187500.02, -187500.02, 0.00, 0.00, 0.00
61, 187500.00, 187500.00, 187500.00, 35133.27, -80020.65, -114716.05, -187500.02, -187500.02, 0.00, 0.00, 0.00
62, 187500.00, 187500.00, 187500.00, 35121.09, -80146.98, -114827.39, -187500.02, -187500.02, 0.00, 0.00, 0.00
63, 187500.00, 187500.00, 187500.00, 35145.32, -80203.11, -114847.44, -187500.02, -187500.02, -128.00, -272.00, 8688.00
64, 187500.00, 187500.00, 187500.00, 35169.86, -80207.49, -114815.37, -187500.02, -187500.02, 0.00, 0.00, 0.00
65, 187500.00, 187500.00, 187500.00, 35164.12, -80296.54, -114876.98, -187500.02, -187500.02, 0.00, 0.00, 0.00
66, 187500.00, 187500.00, 187500.00, 35146.66, -80433.73, -114998.41, -187500.02, -187500.02, 0.00, 0.00, 0.00
67, 187500.00, 187500.00, 187500.00, 35159.72, -80481.30, -114995.95, -187500.02, -187500.02, 0.00, 0.00, 0.00
68, 187500.00, 187500.00, 187500.00, 35187.37, -80469.38, -114941.30, -187500.02, -187500.02, 0.00, 0.00, 0.00
69, 187500.00, 187500.00, 187500.00, 35187.57, -80533.04, -114987.38, -187500.02, -187500.02, 0.00, 0.00, 0.00
70, 187500.00, 187500.00, 187500.00, 35165.42, -80641.70, -115096.66, -187500.02, -187500.02, 0.00, 0.00, 0.00
71, 187500.00, 187500.00, 187500.00, 35178.65, -80721.69, -115143.35, -187500.02, -187500.02, 0.00, 0.00, 0.00
72, 187500.00, 187500.00, 187500.00, 35210.99, -80752.96, -115125.36, -187500.02, -187500.02, 0.00, 0.00, 0.00
73, 187500.00, 187500.00, 187500.00, 35214.19, -80803.03, -115148.72, -187500.02, -187500.02, -128.00, -224.00, 8736.00
74, 187500.00, 187500.00, 187500.00, 35194.21, -80904.91, -115243.78, -187500.02, -187500.02, 0.00, 0.00, 0.00
75, 187500.00, 187500.00, 187500.00, 35199.59, -81004.98, -115280.88, -187500.02, -187500.02, 0.00, 0.00, 0.00
76, 187500.00, 187500.00, 187500.00, 35228.88, -81007.46, -115213.94, -187500.02, -187500.02, 0.00, 0.00, 0.00
77, 187500.00, 187500.00, 187500.00, 35242.80, -81018.63, -115213.09, -187500.02, -187500.02, 0.00, 0.00, 0.00
78, 187500.00, 187500.00, 187500.00, 35235.96, -81128.00, -115321.77, -187500.02, -187500.02, 0.00, 0.00, 0.00
79, 187500.00, 187500.00, 187500.00, 35237.66, -81219.53, -115392.35, -187500.02, -187500.02, 0.00, 0.00, 0.00
80, 187500.00, 187500.00, 187500.00, 35272.71, -81257.55, -115398.56, -187500.02, -187500.02, 0.00, 0.00, 0.00
81, 187500.00, 187500.00, 187500.00, 35300.54, -81311.17, -115421.21, -187500.02, -187500.02, 0.00, 0.00, 0.00
82, 187500.00, 187500.00, 187500.00, 35296.82, -81422.06, -115524.48, -187500.02, -187500.02, 0.00, 0.00, 0.00
83, 187500.00, 187500.00, 187500.00, 35295.66, -81545.89, -115618.69, -187500.02, -187500.02, -96.00, -304.00, 8720.00
84, 187500.00, 187500.00, 187500.00, 35326.66, -81577.59, -115587.52, -187500.02, -187500.02, 0.00, 0.00, 0.00
85, 187500.00, 187500.00, 187500.00, 35359.72, -81580.83, -115560.73, -187500.02, -187500.02, 0.00, 0.00, 0.00
86, 187500.00, 187500.00, 187500.00, 35363.68, -81675.38, -115640.14, -187500.02, -187500.02, 0.00, 0.00, 0.00
87, 187500.00, 187500.00, 187500.00, 35357.46, -81814.63, -115743.68, -187500.02, -187500.02, 0.00, 0.00, 0.00
88, 187500.00, 187500.00, 187500.00, 35379.28, -81889.32, -115753.02, -187500.02, -187500.02, 0.00, 0.00, 0.00
89, 187500.00, 187500.00, 187500.00, 35403.29, -81884.52, -115704.09, -187500.02, -187500.02, 0.00, 0.00, 0.00
90, 187500.00, 187500.00, 187500.00, 35398.86, -81982.69, -115761.27, -187500.02, -187500.02, 0.00, 0.00, 0.00
91, 187500.00, 187500.00, 187500.00, 35374.05, -82098.00, -115853.13, -187500.02, -187500.02, 0.00, 0.00, 0.00
92, 187500.00, 187500.00, 187500.00, 35382.63, -82144.63, -115848.02, -187500.02, -187500.02, 0.00, 0.00, 0.00
93, 187500.00, 187500.00, 187500.00, 35407.09, -82160.00, -115804.48, -187500.02, -187500.02, -112.00, -272.00, 8720.00
94, 187500.00, 187500.00, 187500.00, 35398.52, -82233.25, -115852.82, -187500.02, -187500.02, 0.00, 0.00, 0.00
95, 187500.00, 187500.00, 187500.00, 35361.80, -82358.04, -115979.33, -187500.02, -187500.02, 0.00, 0.00, 0.00
96, 187500.00, 187500.00, 187500.00, 35352.21, -82436.90, -116023.72, -187500.02, -187500.02, 0.00, 0.00, 0.00
97, 187500.00, 187500.00, 187500.00, 35370.61, -82461.53, -115984.78, -187500.02, -187500.02, 0.00, 0.00, 0.00
98, 187500.00, 187500.00, 187500.00, 35366.20, -82499.30, -115992.30, -187500.02, -187500.02, 0.00, 0.00, 0.00
99, 187500.00, 187500.00, 187500.00, 35328.23, -82614.44, -116100.08, -187500.02, -187500.02, 0.00, 0.00, 0.00
100, 187500.00, 187500.00, 187500.00, 35313.39, -82723.40, -116170.62, -187500.02, -187500.02, 0.00, 0.00, 0.00
101, 187500.00, 187500.00, 187500.00, 35330.42, -82768.80, -116147.44, -187500.02, -187500.02, 0.00, 0.00, 0.00
102, 187500.00, 187500.00, 187500.00, 35325.61, -82775.41, -116144.48, -187500.02, -187500.02, 0.00, 0.00, 0.00
103, 187500.00, 187500.00, 187500.00, 35301.52, -82903.89, -116268.09, -187500.02, -187500.02, -112.00, -256.00, 8672.00
104, 187500.00, 187500.00, 187500.00, 35281.00, -83010.73, -116357.74, -187500.02, -187500.02, 0.00, 0.00, 0.00
105, 187500.00, 187500.00, 187500.00, 35299.82, -83045.42, -116354.66, -187500.02, -187500.02, 0.00, 0.00, 0.00
106, 187500.00, 187500.00, 187500.00, 35311.29, -83093.93, -116365.21, -187500.02, -187500.02, 0.00, 0.00, 0.00
107, 187500.00, 187500.00, 187500.00, 35290.43, -83235.23, -116461.68, -187500.02, -187500.02, 0.00, 0.00, 0.00
108, 187500.00, 187500.00, 187500.00, 35267.00, -83369.43, -116541.74, -187500.02, -187500.02, 0.00, 0.00, 0.00
109, 187500.00, 187500.00, 187500.00, 35276.71, -83389.91, -116491.27, -187500.02, -187500.02, 0.00, 0.00, 0.00
110, 187500.00, 187500.00, 187500.00, 35289.74, -83399.85, -116443.60, -187500.02, -187500.02, 0.00, 0.00, 0.00
111, 187500.00, 187500.00, 187500.00, 35269.89, -83472.01, -116518.08, -187500.02, -187500.02, 0.00, 0.00, 0.00
112, 187500.00, 187500.00, 187500.00, 35242.51, -83595.72, -116624.40, -187500.02, -187500.02, 0.00, 0.00, 0.00
113, 187500.00, 187500.00, 187500.00, 35247.61, -83659.47, -116623.33, -187500.02, -187500.02, -80.00, -208.00, 8656.00
114, 187500.00, 187500.00, 187500.00, 35259.34, -83689.42, -116610.09, -187500.02, -187500.02, 0.00, 0.00, 0.00
115, 187500.00, 187500.00, 187500.00, 35238.39, -83754.76, -116659.77, -187500.02, -187500.02, 0.00, 0.00, 0.00
116, 187500.00, 187500.00, 187500.00, 35203.62, -83881.65, -116760.84, -187500.02, -187500.02, 0.00, 0.00, 0.00
117, 187500.00, 187500.00, 187500.00, 35199.50, -83955.43, -116797.23, -187500.02, -187500.02, 0.00, 0.00, 0.00
118, 187500.00, 187500.00, 187500.00, 35219.75, -83950.83, -116761.38, -187500.02, -187500.02, 0.00, 0.00, 0.00
119, 187500.00, 187500.00, 187500.00, 35209.92, -84011.51, -116805.16, -187500.02, -187500.02, 0.00, 0.00, 0.00
120, 187500.00, 187500.00, 187500.00, 35172.70, -84149.35, -116917.70, -187500.02, -187500.02, 0.00, 0.00, 0.00
121, 187500.00, 187500.00, 187500.00, 35165.20, -84228.05, -116954.65, -187500.02, -187500.02, 0.00, 0.00, 0.00
122, 187500.00, 187500.00, 187500.00, 35187.64, -84246.76, -116920.45, -187500.02, -187500.02, 0.00, 0.00, 0.00
123, 187500.00, 187500.00, 187500.00, 35189.63, -84308.12, -116959.05, -187500.02, -187500.02, -112.00, -336.00, 8656.00
124, 187500.00, 187500.00, 187500.00, 35162.49, -84437.22, -117081.83, -187500.02, -187500.02, 0.00, 0.00, 0.00
125, 187500.00, 187500.00, 187500.00, 35153.68, -84536.69, -117151.84, -187500.02, -187500.02, 0.00, 0.00, 0.00
126, 187500.00, 187500.00, 187500.00, 35179.45, -84549.36, -117101.81, -187500.02, -187500.02, 0.00, 0.00, 0.00
127, 187500.00, 187500.00, 187500.00, 35194.59, -84578.75, -117086.28, -187500.02, -187500.02, 0.00, 0.00, 0.00
128, 187500.00, 187500.00, 187500.00, 35176.79, -84692.01, -117178.68, -187500.02, -187500.02, 0.00, 0.00, 0.00
129, 187500.00, 187500.00, 187500.00, 35167.18, -84814.52, -117264.94, -187500.02, -187500.02, 0.00, 0.00, 0.00
130, 187500.00, 187500.00, 187500.00, 35192.57, -84853.32, -117239.27, -187500.02, -187500.02, 0.00, 0.00, 0.00
131, 187500.00, 187500.00, 187500.00, 35213.52, -84866.87, -117213.95, -187500.02, -187500.02, 0.00, 0.00, 0.00
132, 187500.00, 187500.00, 187500.00, 35202.25, -84969.91, -117295.38, -187500.02, -187500.02, 0.00, 0.00, 0.00
133, 187500.00, 187500.00, 187500.00, 35187.90, -85079.99, -117373.34, -187500.02, -187500.02, -128.00, -272.00, 8688.00
134, 187500.00, 187500.00, 187500.00, 35210.81, -85131.66, -117370.44, -187500.02, -187500.02, 0.00, 0.00, 0.00
135, 187500.00, 187500.00, 187500.00, 35234.46, -85135.09, -117335.63, -187500.02, -187500.02, 0.00, 0.00, 0.00
136, 187500.00, 187500.00, 187500.00, 35232.63, -85231.89, -117405.69, -187500.02, -187500.02, 0.00, 0.00, 0.00
137, 187500.00, 187500.00, 187500.00, 35215.71, -85374.19, -117512.10, -187500.02, -187500.02, 0.00, 0.00, 0.00
138, 187500.00, 187500.00, 187500.00, 35230.55, -85441.04, -117535.82, -187500.02, -187500.02, 0.00, 0.00, 0.00
139, 187500.00, 187500.00, 187500.00, 35258.85, -85451.77, -117510.76, -187500.02, -187500.02, 0.00, 0.00, 0.00
140, 187500.00, 187500.00, 187500.00, 35261.53, -85528.43, -117554.10, -187500.02, -187500.02, 0.00, 0.00, 0.00
141, 187500.00, 187500.00, 187500.00, 35247.98, -85651.41, -117652.49, -187500.02, -187500.02, 0.00, 0.00, 0.00
142, 187500.00, 187500.00, 187500.00, 35256.39, -85708.43, -117668.14, -187500.02, -187500.02, 0.00, 0.00, 0.00
143, 187500.00, 187500.00, 187500.00, 35287.32, -85689.79, -117611.95, -187500.02, -187500.02, -112.00, -256.00, 8704.00
144, 187500.00, 187500.00, 187500.00, 35294.39, -85735.14, -117635.51, -187500.02, -187500.02, 0.00, 0.00, 0.00
145, 187500.00, 187500.00, 187500.00, 35276.10, -85846.72, -117730.57, -187500.02, -187500.02, 0.00, 0.00, 0.00
146, 187500.00, 187500.00, 187500.00, 35282.25, -85937.02, -117768.19, -187500.02, -187500.02, 0.00, 0.00, 0.00
147, 187500.00, 187500.00, 187500.00, 35314.88, -85951.10, -117726.43, -187500.02, -187500.02, 0.00, 0.00, 0.00
148, 187500.00, 187500.00, 187500.00, 35327.58, -85992.26, -117722.21, -187500.02, -187500.02, 0.00, 0.00, 0.00
149, 187500.00, 187500.00, 187500.00, 35309.34, -86124.64, -117814.25, -187500.02, -187500.02, 0.00, 0.00, 0.00
150, 187500.00, 187500.00, 187500.00, 35298.86, -86210.72, -117854.93, -187500.02, -187500.02, 0.00, 0.00, 0.00
151, 187500.00, 187500.00, 187500.00, 35325.93, -86228.11, -117819.04, -187500.02, -187500.02, 0.00, 0.00, 0.00
152, 187500.00, 187500.00, 187500.00, 35339.36, -86251.80, -117832.78, -187500.02, -187500.02, 0.00, 0.00, 0.00
153, 187500.00, 187500.00, 187500.00, 35316.31, -86351.78, -117937.19, -187500.02, -187500.02, -208.00, -208.00, 8720.00
154, 187500.00, 187500.00, 187500.00, 35297.79, -86460.39, -118030.41, -187500.02, -187500.02, 0.00, 0.00, 0.00
155, 187500.00, 187500.00, 187500.00, 35315.51, -86505.31, -118034.55, -187500.02, -187500.02, 0.00, 0.00, 0.00
156, 187500.00, 187500.00, 187500.00, 35331.38, -86516.78, -118034.24, -187500.02, -187500.02, 0.00, 0.00, 0.00
157, 187500.00, 187500.00, 187500.00, 35311.91, -86595.05, -118129.44, -187500.02, -187500.02, 0.00, 0.00, 0.00
158, 187500.00, 187500.00, 187500.00, 35290.21, -86731.52, -118231.45, -187500.02, -187500.02, 0.00, 0.00, 0.00
159, 187500.00, 187500.00, 187500.00, 35298.77, -86807.71, -118239.70, -187500.02, -187500.02, 0.00, 0.00, 0.00
160, 187500.00, 187500.00, 187500.00, 35313.99, -86824.16, -118221.97, -187500.02, -187500.02, 0.00, 0.00, 0.00
161, 187500.00, 187500.00, 187500.00, 35300.91, -86923.74, -118301.32, -187500.02, -187500.02, 0.00, 0.00, 0.00
162, 187500.00, 187500.00, 187500.00, 35268.91, -87036.66, -118392.45, -187500.02, -187500.02, 0.00, 0.00, 0.00
163, 187500.00, 187500.00, 187500.00, 35271.90, -87083.00, -118385.02, -187500.02, -187500.02, -160.00, -208.00, 8704.00
164, 187500.00, 187500.00, 187500.00, 35298.86, -87100.38, -118348.13, -187500.02, -187500.02, 0.00, 0.00, 0.00
165, 187500.00, 187500.00, 187500.00, 35292.98, -87158.52, -118382.50, -187500.02, -187500.02, 0.00, 0.00, 0.00
166, 187500.00, 187500.00, 187500.00, 35263.79, -87279.24, -118495.02, -187500.02, -187500.02, 0.00, 0.00, 0.00
167, 187500.00, 187500.00, 187500.00, 35263.52, -87362.10, -118549.11, -187500.02, -187500.02, 0.00, 0.00, 0.00
168, 187500.00, 187500.00, 187500.00, 35285.78, -87357.81, -118523.16, -187500.02, -187500.02, 0.00, 0.00, 0.00
169, 187500.00, 187500.00, 187500.00, 35285.60, -87407.32, -118549.98, -187500.02, -187500.02, 0.00, 0.00, 0.00
170, 187500.00, 187500.00, 187500.00, 35255.20, -87509.45, -118639.32, -187500.02, -187500.02, 0.00, 0.00, 0.00
171, 187500.00, 187500.00, 187500.00, 35251.11, -87611.55, -118695.31, -187500.02, -187500.02, 0.00, 0.00, 0.00
172, 187500.00, 187500.00, 187500.00, 35272.75, -87630.93, -118643.77, -187500.02, -187500.02, 0.00, 0.00, 0.00
173, 187500.00, 187500.00, 187500.00, 35275.01, -87662.33, -118637.67, -187500.02, -187500.02, -176.00, -192.00, 8704.00
174, 187500.00, 187500.00, 187500.00, 35249.62, -87776.02, -118740.09, -187500.02, -187500.02, 0.00, 0.00, 0.00
175, 187500.00, 187500.00, 187500.00, 35236.09, -87893.49, -118827.62, -187500.02, -187500.02, 0.00, 0.00, 0.00
176, 187500.00, 187500.00, 187500.00, 35256.43, -87926.09, -118822.02, -187500.02, -187500.02, 0.00, 0.00, 0.00
177, 187500.00, 187500.00, 187500.00, 35264.64, -87938.06, -118811.41, -187500.02, -187500.02, 0.00, 0.00, 0.00
178, 187500.00, 187500.00, 187500.00, 35242.64, -88053.66, -118915.26, -187500.02, -187500.02, 0.00, 0.00, 0.00
179, 187500.00, 187500.00, 187500.00, 35222.59, -88193.03, -119022.32, -187500.02, -187500.02, 0.00, 0.00, 0.00
180, 187500.00, 187500.00, 187500.00, 35234.71, -88250.54, -119020.66, -187500.02, -187500.02, 0.00, 0.00, 0.00
181, 187500.00, 187500.00, 187500.00, 35247.43, -88244.62, -118995.90, -187500.02, -187500.02, 0.00, 0.00, 0.00
182, 187500.00, 187500.00, 187500.00, 35235.42, -88362.39, -119093.78, -187500.02, -187500.02, 0.00, 0.00, 0.00
183, 187500.00, 187500.00, 187500.00, 35211.06, -88485.48, -119176.48, -187500.02, -187500.02, -160.00, -288.00, 8672.00
184, 187500.00, 187500.00, 187500.00, 35230.44, -88537.23, -119171.52, -187500.02, -187500.02, 0.00, 0.00, 0.00
185, 187500.00, 187500.00, 187500.00, 35254.80, -88564.78, -119140.65, -187500.02, -187500.02, 0.00, 0.00, 0.00
186, 187500.00, 187500.00, 187500.00, 35242.82, -88632.98, -119188.80, -187500.02, -187500.02, 0.00, 0.00, 0.00
187, 187500.00, 187500.00, 187500.00, 35221.45, -88774.47, -119300.42, -187500.02, -187500.02, 0.00, 0.00, 0.00
188, 187500.00, 187500.00, 187500.00, 35229.30, -88843.35, -119303.17, -187500.02, -187500.02, 0.00, 0.00, 0.00
189, 187500.00, 187500.00, 187500.00, 35256.03, -88832.24, -119236.38, -187500.02, -187500.02, 0.00, 0.00, 0.00
190, 187500.00, 187500.00, 187500.00, 35256.01, -88858.22, -119254.60, -187500.02, -187500.02, 0.00, 0.00, 0.00
191, 187500.00, 187500.00, 187500.00, 35241.50, -89011.46, -119380.93, -187500.02, -187500.02, 0.00, 0.00, 0.00
192, 187500.00, 187500.00, 187500.00, 35241.48, -89075.41, -119411.11, -187500.02, -187500.02, 0.00, 0.00, 0.00
193, 187500.00, 187500.00, 187500.00, 35275.41, -89083.59, -119357.62, -187500.02, -187500.02, 0.00, 0.00, 0.00
194, 187500.00, 187500.00, 187500.00, 35283.93, -89138.69, -119371.63, -187500.02, -187500.02, -176.00, -272.00, 8720.00
195, 187500.00, 187500.00, 187500.00, 35263.81, -89250.65, -119471.34, -187500.02, -187500.02, 0.00, 0.00, 0.00
196, 187500.00, 187500.00, 187500.00, 35264.03, -89345.84, -119528.95, -187500.02, -187500.02, 0.00, 0.00, 0.00
197, 187500.00, 187500.00, 187500.00, 35292.04, -89347.23, -119484.51, -187500.02, -187500.02, 0.00, 0.00, 0.00
198, 187500.00, 187500.00, 187500.00, 35308.60, -89389.20, -119494.48, -187500.02, -187500.02, 0.00, 0.00, 0.00
199, 187500.00, 187500.00, 187500.00, 35289.56, -89506.41, -119601.38, -187500.02, -187500.02, 0.00, 0.00, 0.00
200, 187500.00, 187500.00, 187500.00, 35279.52, -89613.28, -119696.18, -187500.02, -187500.02, 0.00, 0.00, 0.00
201, 187500.00, 187500.00, 187500.00, 35305.96, -89633.11, -119661.38, -187500.02, -187500.02, 0.00, 0.00, 0.00
202, 187500.00, 187500.00, 187500.00, 35331.58, -89651.37, -119635.41, -187500.02, -187500.02, 0.00, 0.00, 0.00
203, 187500.00, 187500.00, 187500.00, 35322.19, -89758.32, -119714.73, -187500.02, -187500.02, 0.00, 0.00, 0.00
204, 187500.00, 187500.00, 187500.00, 35309.83, -89861.19, -119796.61, -187500.02, -187500.02, -160.00, -224.00, 8720.00
205, 187500.00, 187500.00, 187500.00, 35335.52, -89902.96, -119781.16, -187500.02, -187500.02, 0.00, 0.00, 0.00
206, 187500.00, 187500.00, 187500.00, 35360.50, -89900.61, -119737.89, -187500.02, -187500.02, 0.00, 0.00, 0.00
207, 187500.00, 187500.00, 187500.00, 35354.56, -89952.80, -119791.06, -187500.02, -187500.02, 0.00, 0.00, 0.00
208, 187500.00, 187500.00, 187500.00, 35339.36, -90064.23, -119882.66, -187500.02, -187500.02, 0.00, 0.00, 0.00
209, 187500.00, 187500.00, 187500.00, 35360.21, -90137.90, -119897.46, -187500.02, -187500.02, 0.00, 0.00, 0.00
210, 187500.00, 187500.00, 187500.00, 35394.54, -90176.26, -119863.77, -187500.02, -187500.02, 0.00, 0.00, 0.00
211, 187500.00, 187500.00, 187500.00, 35392.96, -90242.17, -119904.43, -187500.02, -187500.02, 0.00, 0.00, 0.00
212, 187500.00, 187500.00, 187500.00, 35372.98, -90367.54, -120008.34, -187500.02, -187500.02, 0.00, 0.00, 0.00
213, 187500.00, 187500.00, 187500.00, 35380.44, -90432.67, -120030.98, -187500.02, -187500.02, 0.00, 0.00, 0.00
214, 187500.00, 187500.00, 187500.00, 35405.90, -90418.26, -119992.16, -187500.02, -187500.02, -176.00, -224.00, 8720.00
215, 187500.00, 187500.00, 187500.00, 35409.54, -90463.27, -120035.68, -187500.02, -187500.02, 0.00, 0.00, 0.00
216, 187500.00, 187500.00, 187500.00, 35391.84, -90608.83, -120153.12, -187500.02, -187500.02, 0.00, 0.00, 0.00
217, 187500.00, 187500.00, 187500.00, 35389.98, -90724.81, -120196.34, -187500.02, -187500.02, 0.00, 0.00, 0.00
218, 187500.00, 187500.00, 187500.00, 35412.32, -90721.41, -120134.81, -187500.02, -187500.02, 0.00, 0.00, 0.00
219, 187500.00, 187500.00, 187500.00, 35417.72, -90734.42, -120138.63, -187500.02, -187500.02, 0.00, 0.00, 0.00
220, 187500.00, 187500.00, 187500.00, 35395.80, -90851.01, -120240.67, -187500.02, -187500.02, 0.00, 0.00, 0.00
221, 187500.00, 187500.00, 187500.00, 35387.48, -90957.74, -120309.91, -187500.02, -187500.02, 0.00, 0.00, 0.00
222, 187500.00, 187500.00, 187500.00, 35409.10, -90979.91, -120293.09, -187500.02, -187500.02, 0.00, 0.00, 0.00
223, 187500.00, 187500.00, 187500.00, 35417.93, -91001.75, -120283.98, -187500.02, -187500.02, 0.00, 0.00, 0.00
224, 187500.00, 187500.00, 187500.00, 35395.89, -91126.94, -120391.74, -187500.02, -187500.02, -160.00, -320.00, 8720.00
225, 187500.00, 187500.00, 187500.00, 35373.96, -91219.86, -120463.36, -187500.02, -187500.02, 0.00, 0.00, 0.00
226, 187500.00, 187500.00, 187500.00, 35390.28, -91249.48, -120435.30, -187500.02, -187500.02, 0.00, 0.00, 0.00
227, 187500.00, 187500.00, 187500.00, 35400.89, -91263.31, -120423.13, -187500.02, -187500.02, 0.00, 0.00, 0.00
228, 187500.00, 187500.00, 187500.00, 35379.12, -91355.42, -120505.65, -187500.02, -187500.02, 0.00, 0.00, 0.00
229, 187500.00, 187500.00, 187500.00, 35354.76, -91482.54, -120605.59, -187500.02, -187500.02, 0.00, 0.00, 0.00
230, 187500.00, 187500.00, 187500.00, 35368.95, -91558.22, -120600.55, -187500.02, -187500.02, 0.00, 0.00, 0.00
231, 187500.00, 187500.00, 187500.00, 35381.40, -91572.39, -120563.88, -187500.02, -187500.02, 0.00, 0.00, 0.00
232, 187500.00, 187500.00, 187500.00, 35365.44, -91644.41, -120625.48, -187500.02, -187500.02, 0.00, 0.00, 0.00
233, 187500.00, 187500.00, 187500.00, 35341.19, -91747.41, -120728.90, -187500.02, -187500.02, 0.00, 0.00, 0.00
234, 187500.00, 187500.00, 187500.00, 35349.15, -91793.78, -120737.41, -187500.02, -187500.02, -160.00, -288.00, 8736.00
235, 187500.00, 187500.00, 187500.00, 35366.40, -91800.89, -120701.80, -187500.02, -187500.02, 0.00, 0.00, 0.00
236, 187500.00, 187500.00, 187500.00, 35359.25, -91850.91, -120742.04, -187500.02, -187500.02, 0.00, 0.00, 0.00
237, 187500.00, 187500.00, 187500.00, 35334.78, -92009.50, -120879.50, -187500.02, -187500.02, 0.00, 0.00, 0.00
238, 187500.00, 187500.00, 187500.00, 35328.25, -92087.75, -120922.71, -187500.02, -187500.02, 0.00, 0.00, 0.00
239, 187500.00, 187500.00, 187500.00, 35346.45, -92082.16, -120874.85, -187500.02, -187500.02, 0.00, 0.00, 0.00
240, 187500.00, 187500.00, 187500.00, 35343.96, -92149.29, -120911.53, -187500.02, -187500.02, 0.00, 0.00, 0.00
241, 187500.00, 187500.00, 187500.00, 35314.13, -92281.86, -121033.04, -187500.02, -187500.02, 0.00, 0.00, 0.00
242, 187500.00, 187500.00, 187500.00, 35302.63, -92365.50, -121085.30, -187500.02, -187500.02, 0.00, 0.00, 0.00
243, 187500.00, 187500.00, 187500.00, 35322.46, -92356.60, -121028.86, -187500.02, -187500.02, 0.00, 0.00, 0.00
244, 187500.00, 187500.00, 187500.00, 35329.25, -92399.85, -121031.32, -187500.02, -187500.02, -160.00, -336.00, 8688.00
245, 187500.00, 187500.00, 187500.00, 35301.88, -92509.55, -121128.50, -187500.02, -187500.02, 0.00, 0.00, 0.00
246, 187500.00, 187500.00, 187500.00, 35287.93, -92605.38, -121200.79, -187500.02, -187500.02, 0.00, 0.00, 0.00
247, 187500.00, 187500.00, 187500.00, 35314.26, -92633.29, -121175.40, -187500.02, -187500.02, 0.00, 0.00, 0.00
248, 187500.00, 187500.00, 187500.00, 35325.23, -92657.50, -121169.63, -187500.02, -187500.02, 0.00, 0.00, 0.00
249, 187500.00, 187500.00, 187500.00, 35300.09, -92773.05, -121263.04, -187500.02, -187500.02, 0.00, 0.00, 0.00
250, 187500.00, 187500.00, 187500.00, 35336.41, -92909.20, -121362.97, -187500.02, -187500.02, 0.00, 0.00, 0.00
251, 187500.00, 187500.00, 187500.00, 35757.85, -92912.66, -121298.06, -187500.02, -187500.02, 0.00, 0.00, 0.00
252, 187500.00, 187500.00, 187500.00, 36093.68, -92847.60, -121211.88, -187500.02, -187500.02, 0.00, 0.00, 0.00
253, 187500.00, 187500.00, 187500.00, 35648.37, -92981.42, -121369.68, -187500.02, -187500.02, 0.00, 0.00, 0.00
254, 187500.00, 187500.00, 187500.00, 35184.37, -93167.27, -121544.00, -187500.02, -187500.02, -128.00, -336.00, 8736.00
255, 187500.00, 187500.00, 187500.00, 35527.29, -93182.43, -121492.57, -187500.02, -187500.02, 0.00, 0.00, 0.00
0, 187500.00, 187500.00, 187500.00, 35997.13, -93132.90, -121401.20, -187500.02, -187500.02, 0.00, 0.00, 0.00
1, 187500.00, 187500.00, 187500.00, 35685.54, -93255.03, -121526.63, -187500.02, -187500.02, 0.00, 0.00, 0.00
2, 187500.00, 187500.00, 187500.00, 35145.34, -93498.15, -121738.80, -187500.02, -187500.02, 0.00, 0.00, 0.00
3, 187500.00, 187500.00, 187500.00, 35375.61, -93525.75, -121694.20, -187500.02, -187500.02, 0.00, 0.00, 0.00
4, 187500.00, 187500.00, 187500.00, 35933.51, -93454.70, -121552.63, -187500.02, -187500.02, 0.00, 0.00, 0.00
5, 187500.00, 187500.00, 187500.00, 35768.02, -93537.51, -121618.97, -187500.02, -187500.02, 0.00, 0.00, 0.00
6, 187500.00, 187500.00, 187500.00, 35181.46, -93749.83, -121812.20, -187500.02, -187500.02, 0.00, 0.00, 0.00
7, 187500.00, 187500.00, 187500.00, 35252.07, -93811.54, -121810.45, -187500.02, -187500.02, 0.00, 0.00, 0.00
8, 187500.00, 187500.00, 187500.00, 35837.13, -93736.77, -121686.40, -187500.02, -187500.02, -128.00, -288.00, 8688.00
9, 187500.00, 187500.00, 187500.00, 35829.09, -93761.97, -121703.86, -187500.02, -187500.02, 0.00, 0.00, 0.00
10, 187500.00, 187500.00, 187500.00, 35235.60, -93944.65, -121882.96, -187500.02, -187500.02, 0.00, 0.00, 0.00
11, 187500.00, 187500.00, 187500.00, 35152.72, -94062.82, -121950.02, -187500.02, -187500.02, 0.00, 0.00, 0.00
12, 187500.00, 187500.00, 187500.00, 35728.84, -94011.88, -121830.21, -187500.02, -187500.02, 0.00, 0.00, 0.00
13, 187500.00, 187500.00, 187500.00, 35877.21, -94012.80, -121817.56, -187500.02, -187500.02, 0.00, 0.00, 0.00
14, 187500.00, 187500.00, 187500.00, 35317.61, -94207.50, -122018.55, -187500.02, -187500.02, 0.00, 0.00, 0.00
15, 187500.00, 187500.00, 187500.00, 35085.89, -94371.21, -122129.39, -187500.02, -187500.02, 0.00, 0.00, 0.00
16, 187500.00, 187500.00, 187500.00, 35619.18, -94324.72, -122017.88, -187500.02, -187500.02, 0.00, 0.00, 0.00
17, 187500.00, 187500.00, 187500.00, 35912.17, -94293.49, -121960.08, -187500.02, -187500.02, 0.00, 0.00, 0.00
18, 187500.00, 187500.00, 187500.00, 35422.51, -94466.49, -122124.05, -187500.02, -187500.02, -144.00, -304.00, 8640.00
19, 187500.00, 187500.00, 187500.00, 35057.84, -94654.54, -122272.62, -187500.02, -187500.02, 0.00, 0.00, 0.00
20, 187500.00, 187500.00, 187500.00, 35496.29, -94632.55, -122192.76, -187500.02, -187500.02, 0.00, 0.00, 0.00
21, 187500.00, 187500.00, 187500.00, 35914.87, -94591.46, -122124.05, -187500.02, -187500.02, 0.00, 0.00, 0.00
22, 187500.00, 187500.00, 187500.00, 35528.95, -94722.84, -122257.13, -187500.02, -187500.02, 0.00, 0.00, 0.00
23, 187500.00, 187500.00, 187500.00, 35045.95, -94903.54, -122429.33, -187500.02, -187500.02, 0.00, 0.00, 0.00
24, 187500.00, 187500.00, 187500.00, 35361.22, -94932.03, -122397.52, -187500.02, -187500.02, 0.00, 0.00, 0.00
25, 187500.00, 187500.00, 187500.00, 35873.45, -94893.26, -122299.48, -187500.02, -187500.02, 0.00, 0.00, 0.00
26, 187500.00, 187500.00, 187500.00, 35622.62, -94969.59, -122360.15, -187500.02, -187500.02, 0.00, 0.00, 0.00
27, 187500.00, 187500.00, 187500.00, 35086.56, -95145.05, -122519.49, -187500.02, -187500.02, 0.00, 0.00, 0.00
28, 187500.00, 187500.00, 187500.00, 35252.28, -95194.89, -122496.16, -187500.02, -187500.02, -128.00, -288.00, 8640.00
29, 187500.00, 187500.00, 187500.00, 35399.02, -95157.61, -122395.63, -187500.02, -187500.02, 0.00, 0.00, 0.00
30, 187500.00, 187500.00, 187500.00, 35090.92, -95269.99, -122497.16, -187500.02, -187500.02, 0.00, 0.00, 0.00
31, 187500.00, 187500.00, 187500.00, 35068.39, -95392.84, -122610.52, -187500.02, -187500.02, 0.00, 0.00, 0.00
32, 187500.00, 187500.00, 187500.00, 35114.21, -95474.16, -122656.40, -187500.02, -187500.02, 0.00, 0.00, 0.00
33, 187500.00, 187500.00, 187500.00, 35174.09, -95483.36, -122603.61, -187500.02, -187500.02, 0.00, 0.00, 0.00
34, 187500.00, 187500.00, 187500.00, 35193.65, -95525.56, -122612.03, -187500.02, -187500.02, 0.00, 0.00, 0.00
35, 187500.00, 187500.00, 187500.00, 35181.20, -95613.31, -122692.97, -187500.02, -187500.02, 0.00, 0.00, 0.00
36, 187500.00, 187500.00, 187500.00, 35197.00, -95690.77, -122750.30, -187500.02, -187500.02, 0.00, 0.00, 0.00
37, 187500.00, 187500.00, 187500.00, 35245.01, -95728.95, -122726.52, -187500.02, -187500.02, 0.00, 0.00, 0.00
38, 187500.00, 187500.00, 187500.00, 35260.59, -95746.96, -122722.27, -187500.02, -187500.02, -144.00, -288.00, 8640.00
39, 187500.00, 187500.00, 187500.00, 35246.29, -95846.71, -122812.26, -187500.02, -187500.02, 0.00, 0.00, 0.00
40, 187500.00, 187500.00, 187500.00, 35242.84, -95977.85, -122894.00, -187500.02, -187500.02, 0.00, 0.00, 0.00
41, 187500.00, 187500.00, 187500.00, 35269.09, -95990.66, -122848.52, -187500.02, -187500.02, 0.00, 0.00, 0.00
42, 187500.00, 187500.00, 187500.00, 35290.86, -95987.26, -122822.92, -187500.02, -187500.02, 0.00, 0.00, 0.00
43, 187500.00, 187500.00, 187500.00, 35274.61, -96075.70, -122896.86, -187500.02, -187500.02, 0.00, 0.00, 0.00
44, 187500.00, 187500.00, 187500.00, 35257.21, -96183.69, -122984.93, -187500.02, -187500.02, 0.00, 0.00, 0.00
45, 187500.00, 187500.00, 187500.00, 35281.71, -96232.66, -122966.69, -187500.02, -187500.02, 0.00, 0.00, 0.00
46, 187500.00, 187500.00, 187500.00, 35307.84, -96267.84, -122940.54, -187500.02, -187500.02, 0.00, 0.00, 0.00
47, 187500.00, 187500.00, 187500.00, 35295.21, -96360.02, -123021.23, -187500.02, -187500.02, 0.00, 0.00, 0.00
48, 187500.00, 187500.00, 187500.00, 35269.96, -96465.63, -123121.79, -187500.02, -187500.02, -112.00, -256.00, 8704.00
49, 187500.00, 187500.00, 187500.00, 35284.06, -96529.49, -123134.34, -187500.02, -187500.02, 0.00, 0.00, 0.00
50, 187500.00, 187500.00, 187500.00, 35310.03, -96526.34, -123102.25, -187500.02, -187500.02, 0.00, 0.00, 0.00
51, 187500.00, 187500.00, 187500.00, 35306.68, -96597.59, -123171.54, -187500.02, -187500.02, 0.00, 0.00, 0.00
52, 187500.00, 187500.00, 187500.00, 35282.18, -96719.70, -123288.84, -187500.02, -187500.02, 0.00, 0.00, 0.00
53, 187500.00, 187500.00, 187500.00, 35292.60, -96818.27, -123334.38, -187500.02, -187500.02, 0.00, 0.00, 0.00
54, 187500.00, 187500.00, 187500.00, 35321.39, -96837.97, -123296.33, -187500.02, -187500.02, 0.00, 0.00, 0.00
55, 187500.00, 187500.00, 187500.00, 35324.00, -96886.74, -123322.44, -187500.02, -187500.02, 0.00, 0.00, 0.00
56, 187500.00, 187500.00, 187500.00, 35301.36, -97019.27, -123424.54, -187500.02, -187500.02, 0.00, 0.00, 0.00
57, 187500.00, 187500.00, 187500.00, 35300.96, -97118.75, -123462.70, -187500.02, -187500.02, 0.00, 0.00, 0.00
58, 187500.00, 187500.00, 187500.00, 35325.77, -97109.74, -123402.48, -187500.02, -187500.02, -144.00, -288.00, 8656.00
59, 187500.00, 187500.00, 187500.00, 35335.11, -97139.25, -123408.98, -187500.02, -187500.02, 0.00, 0.00, 0.00
60, 187500.00, 187500.00, 187500.00, 35311.08, -97242.53, -123504.23, -187500.02, -187500.02, 0.00, 0.00, 0.00
61, 187500.00, 187500.00, 187500.00, 35302.07, -97339.48, -123593.01, -187500.02, -187500.02, 0.00, 0.00, 0.00
62, 187500.00, 187500.00, 187500.00, 35331.47, -97372.40, -123579.75, -187500.02, -187500.02, 0.00, 0.00, 0.00
63, 187500.00, 187500.00, 187500.00, 35345.59, -97365.67, -123551.19, -187500.02, -187500.02, 0.00, 0.00, 0.00
64, 187500.00, 187500.00, 187500.00, 35338.40, -97461.58, -123633.82, -187500.02, -187500.02, 0.00, 0.00, 0.00
65, 187500.00, 187500.00, 187500.00, 35330.08, -97606.47, -123730.85, -187500.02, -187500.02, 0.00, 0.00, 0.00
66, 187500.00, 187500.00, 187500.00, 35348.72, -97623.41, -123690.68, -187500.02, -187500.02, 0.00, 0.00, 0.00
67, 187500.00, 187500.00, 187500.00, 35369.49, -97629.82, -123646.52, -187500.02, -187500.02, 0.00, 0.00, 0.00
68, 187500.00, 187500.00, 187500.00, 35354.74, -97705.55, -123694.44, -187500.02, -187500.02, -144.00, -240.00, 8688.00
69, 187500.00, 187500.00, 187500.00, 35335.11, -97811.27, -123795.36, -187500.02, -187500.02, 0.00, 0.00, 0.00
70, 187500.00, 187500.00, 187500.00, 35358.80, -97895.88, -123830.60, -187500.02, -187500.02, 0.00, 0.00, 0.00
71, 187500.00, 187500.00, 187500.00, 35380.04, -97916.91, -123807.85, -187500.02, -187500.02, 0.00, 0.00, 0.00
72, 187500.00, 187500.00, 187500.00, 35369.31, -97955.09, -123852.53, -187500.02, -187500.02, 0.00, 0.00, 0.00
73, 187500.00, 187500.00, 187500.00, 35352.61, -98083.81, -123969.12, -187500.02, -187500.02, 0.00, 0.00, 0.00
74, 187500.00, 187500.00, 187500.00, 35362.70, -98146.53, -123983.47, -187500.02, -187500.02, 0.00, 0.00, 0.00
75, 187500.00, 187500.00, 187500.00, 35390.90, -98132.41, -123922.85, -187500.02, -187500.02, 0.00, 0.00, 0.00
76, 187500.00, 187500.00, 187500.00, 35390.54, -98195.26, -123963.13, -187500.02, -187500.02, 0.00, 0.00, 0.00
77, 187500.00, 187500.00, 187500.00, 35370.32, -98315.62, -124073.61, -187500.02, -187500.02, 0.00, 0.00, 0.00
78, 187500.00, 187500.00, 187500.00, 35373.63, -98419.11, -124116.08, -187500.02, -187500.02, -144.00, -288.00, 8688.00
79, 187500.00, 187500.00, 187500.00, 35398.16, -98433.32, -124086.40, -187500.02, -187500.02, 0.00, 0.00, 0.00
80, 187500.00, 187500.00, 187500.00, 35403.53, -98487.30, -124123.39, -187500.02, -187500.02, 0.00, 0.00, 0.00
81, 187500.00, 187500.00, 187500.00, 35374.83, -98593.02, -124235.84, -187500.02, -187500.02, 0.00, 0.00, 0.00
82, 187500.00, 187500.00, 187500.00, 35369.46, -98701.55, -124310.74, -187500.02, -187500.02, 0.00, 0.00, 0.00
83, 187500.00, 187500.00, 187500.00, 35391.21, -98704.95, -124262.15, -187500.02, -187500.02, 0.00, 0.00, 0.00
84, 187500.00, 187500.00, 187500.00, 35408.05, -98729.53, -124255.60, -187500.02, -187500.02, 0.00, 0.00, 0.00
85, 187500.00, 187500.00, 187500.00, 35390.14, -98839.61, -124353.86, -187500.02, -187500.02, 0.00, 0.00, 0.00
86, 187500.00, 187500.00, 187500.00, 35375.05, -98939.57, -124421.02, -187500.02, -187500.02, 0.00, 0.00, 0.00
87, 187500.00, 187500.00, 187500.00, 35396.04, -98978.84, -124383.48, -187500.02, -187500.02, 0.00, 0.00, 0.00
88, 187500.00, 187500.00, 187500.00, 35405.79, -98994.33, -124363.07, -187500.02, -187500.02, 0.00, 0.00, 0.00
89, 187500.00, 187500.00, 187500.00, 35383.05, -99084.19, -124451.85, -187500.02, -187500.02, -144.00, -240.00, 8688.00
90, 187500.00, 187500.00, 187500.00, 35364.57, -99196.57, -124544.16, -187500.02, -187500.02, 0.00, 0.00, 0.00
91, 187500.00, 187500.00, 187500.00, 35383.05, -99255.09, -124533.77, -187500.02, -187500.02, 0.00, 0.00, 0.00
92, 187500.00, 187500.00, 187500.00, 35401.65, -99265.13, -124509.54, -187500.02, -187500.02, 0.00, 0.00, 0.00
93, 187500.00, 187500.00, 187500.00, 35387.48, -99338.01, -124580.91, -187500.02, -187500.02, 0.00, 0.00, 0.00
94, 187500.00, 187500.00, 187500.00, 35366.63, -99464.16, -124679.84, -187500.02, -187500.02, 0.00, 0.00, 0.00
95, 187500.00, 187500.00, 187500.00, 35376.17, -99497.98, -124663.90, -187500.02, -187500.02, 0.00, 0.00, 0.00
96, 187500.00, 187500.00, 187500.00, 35400.98, -99506.92, -124636.90, -187500.02, -187500.02, 0.00, 0.00, 0.00
97, 187500.00, 187500.00, 187500.00, 35391.84, -99587.32, -124711.30, -187500.02, -187500.02, 0.00, 0.00, 0.00
98, 187500.00, 187500.00, 187500.00, 35364.10, -99690.72, -124816.95, -187500.02, -187500.02, 0.00, 0.00, 0.00
99, 187500.00, 187500.00, 187500.00, 35370.20, -99782.45, -124855.48, -187500.02, -187500.02, -112.00, -288.00, 8624.00
100, 187500.00, 187500.00, 187500.00, 35395.33, -99803.89, -124821.59, -187500.02, -187500.02, 0.00, 0.00, 0.00
101, 187500.00, 187500.00, 187500.00, 35394.07, -99861.24, -124856.33, -187500.02, -187500.02, 0.00, 0.00, 0.00
102, 187500.00, 187500.00, 187500.00, 35366.11, -99971.59, -124958.02, -187500.02, -187500.02, 0.00, 0.00, 0.00
103, 187500.00, 187500.00, 187500.00, 35367.72, -100061.42, -125006.69, -187500.02, -187500.02, 0.00, 0.00, 0.00
104, 187500.00, 187500.00, 187500.00, 35393.88, -100079.75, -124962.92, -187500.02, -187500.02, 0.00, 0.00, 0.00
105, 187500.00, 187500.00, 187500.00, 35405.74, -100126.45, -124976.51, -187500.02, -187500.02, 0.00, 0.00, 0.00
106, 187500.00, 187500.00, 187500.00, 35382.30, -100246.77, -125093.99, -187500.02, -187500.02, 0.00, 0.00, 0.00
107, 187500.00, 187500.00, 187500.00, 35372.55, -100341.88, -125150.74, -187500.02, -187500.02, 0.00, 0.00, 0.00
108, 187500.00, 187500.00, 187500.00, 35395.42, -100374.84, -125115.70, -187500.02, -187500.02, 0.00, 0.00, 0.00
109, 187500.00, 187500.00, 187500.00, 35406.88, -100393.39, -125103.63, -187500.02, -187500.02, -112.00, -304.00, 8688.00
110, 187500.00, 187500.00, 187500.00, 35387.97, -100525.13, -125199.88, -187500.02, -187500.02, 0.00, 0.00, 0.00
111, 187500.00, 187500.00, 187500.00, 35371.10, -100640.34, -125278.66, -187500.02, -187500.02, 0.00, 0.00, 0.00
112, 187500.00, 187500.00, 187500.00, 35387.32, -100651.91, -125227.03, -187500.02, -187500.02, 0.00, 0.00, 0.00
113, 187500.00, 187500.00, 187500.00, 35404.71, -100676.88, -125197.15, -187500.02, -187500.02, 0.00, 0.00, 0.00
114, 187500.00, 187500.00, 187500.00, 35386.48, -100776.88, -125277.03, -187500.02, -187500.02, 0.00, 0.00, 0.00
115, 187500.00, 187500.00, 187500.00, 35362.07, -100874.45, -125356.16, -187500.02, -187500.02, 0.00, 0.00, 0.00
116, 187500.00, 187500.00, 187500.00, 35378.63, -100903.05, -125337.72, -187500.02, -187500.02, 0.00, 0.00, 0.00
117, 187500.00, 187500.00, 187500.00, 35400.42, -100909.80, -125304.41, -187500.02, -187500.02, 0.00, 0.00, 0.00
118, 187500.00, 187500.00, 187500.00, 35388.89, -100965.82, -125369.86, -187500.02, -187500.02, 0.00, 0.00, 0.00
119, 187500.00, 187500.00, 187500.00, 35369.31, -101085.20, -125491.88, -187500.02, -187500.02, -80.00, -288.00, 8656.00
120, 187500.00, 187500.00, 187500.00, 35384.46, -101156.95, -125526.66, -187500.02, -187500.02, 0.00, 0.00, 0.00
121, 187500.00, 187500.00, 187500.00, 35407.46, -101176.64, -125487.61, -187500.02, -187500.02, 0.00, 0.00, 0.00
122, 187500.00, 187500.00, 187500.00, 35399.39, -101214.15, -125517.18, -187500.02, -187500.02, 0.00, 0.00, 0.00
123, 187500.00, 187500.00, 187500.00, 35382.09, -101335.05, -125632.58, -187500.02, -187500.02, 0.00, 0.00, 0.00
124, 187500.00, 187500.00, 187500.00, 35389.83, -101447.30, -125676.79, -187500.02, -187500.02, 0.00, 0.00, 0.00
125, 187500.00, 187500.00, 187500.00, 35410.37, -101458.66, -125627.06, -187500.02, -187500.02, 0.00, 0.00, 0.00
126, 187500.00, 187500.00, 187500.00, 35408.63, -101498.20, -125654.77, -187500.02, -187500.02, 0.00, 0.00, 0.00
127, 187500.00, 187500.00, 187500.00, 35386.36, -101622.98, -125772.73, -187500.02, -187500.02, 0.00, 0.00, 0.00
128, 187500.00, 187500.00, 187500.00, 35386.92, -101723.27, -125827.02, -187500.02, -187500.02, 0.00, 0.00, 0.00
129, 187500.00, 187500.00, 187500.00, 35418.95, -101745.41, -125781.29, -187500.02, -187500.02, -64.00, -272.00, 8640.00
130, 187500.00, 187500.00, 187500.00, 35425.59, -101772.49, -125781.98, -187500.02, -187500.02, 0.00, 0.00, 0.00
131, 187500.00, 187500.00, 187500.00, 35403.75, -101886.16, -125876.44, -187500.02, -187500.02, 0.00, 0.00, 0.00
132, 187500.00, 187500.00, 187500.00, 35391.26, -101989.82, -125927.84, -187500.02, -187500.02, 0.00, 0.00, 0.00
133, 187500.00, 187500.00, 187500.00, 35411.53, -101979.83, -125877.55, -187500.02, -187500.02, 0.00, 0.00, 0.00
134, 187500.00, 187500.00, 187500.00, 35427.52, -101994.27, -125866.40, -187500.02, -187500.02, 0.00, 0.00, 0.00
135, 187500.00, 187500.00, 187500.00, 35411.00, -102088.98, -125969.64, -187500.02, -187500.02, 0.00, 0.00, 0.00
136, 187500.00, 187500.00, 187500.00, 35399.71, -102230.38, -126073.80, -187500.02, -187500.02, 0.00, 0.00, 0.00
137, 187500.00, 187500.00, 187500.00, 35415.27, -102255.14, -126043.88, -187500.02, -187500.02, 0.00, 0.00, 0.00
138, 187500.00, 187500.00, 187500.00, 35432.72, -102251.34, -126004.45, -187500.02, -187500.02, 0.00, 0.00, 0.00
139, 187500.00, 187500.00, 187500.00, 35415.91, -102315.17, -126073.78, -187500.02, -187500.02, -80.00, -320.00, 8704.00
140, 187500.00, 187500.00, 187500.00, 35397.00, -102430.48, -126170.09, -187500.02, -187500.02, 0.00, 0.00, 0.00
141, 187500.00, 187500.00, 187500.00, 35413.12, -102502.59, -126173.52, -187500.02, -187500.02, 0.00, 0.00, 0.00
142, 187500.00, 187500.00, 187500.00, 35436.39, -102518.73, -126142.16, -187500.02, -187500.02, 0.00, 0.00, 0.00
143, 187500.00, 187500.00, 187500.00, 35426.69, -102595.82, -126205.25, -187500.02, -187500.02, 0.00, 0.00, 0.00
144, 187500.00, 187500.00, 187500.00, 35403.51, -102725.64, -126325.82, -187500.02, -187500.02, 0.00, 0.00, 0.00
145, 187500.00, 187500.00, 187500.00, 35412.98, -102783.98, -126347.66, -187500.02, -187500.02, 0.00, 0.00, 0.00
146, 187500.00, 187500.00, 187500.00, 35443.05, -102806.60, -126305.39, -187500.02, -187500.02, 0.00, 0.00, 0.00
147, 187500.00, 187500.00, 187500.00, 35437.04, -102866.13, -126330.05, -187500.02, -187500.02, 0.00, 0.00, 0.00
148, 187500.00, 187500.00, 187500.00, 35408.54, -102962.84, -126429.64, -187500.02, -187500.02, 0.00, 0.00, 0.00
149, 187500.00, 187500.00, 187500.00, 35417.57, -103034.88, -126483.53, -187500.02, -187500.02, -128.00, -304.00, 8720.00
150, 187500.00, 187500.00, 187500.00, 35451.41, -103045.98, -126443.19, -187500.02, -187500.02, 0.00, 0.00, 0.00
151, 187500.00, 187500.00, 187500.00, 35458.65, -103094.04, -126470.05, -187500.02, -187500.02, 0.00, 0.00, 0.00
152, 187500.00, 187500.00, 187500.00, 35431.00, -103208.66, -126591.91, -187500.02, -187500.02, 0.00, 0.00, 0.00
153, 187500.00, 187500.00, 187500.00, 35424.74, -103287.56, -126633.96, -187500.02, -187500.02, 0.00, 0.00, 0.00
154, 187500.00, 187500.00, 187500.00, 35453.26, -103311.34, -126594.22, -187500.02, -187500.02, 0.00, 0.00, 0.00
155, 187500.00, 187500.00, 187500.00, 35463.12, -103343.66, -126586.64, -187500.02, -187500.02, 0.00, 0.00, 0.00
156, 187500.00, 187500.00, 187500.00, 35441.35, -103445.70, -126660.63, -187500.02, -187500.02, 0.00, 0.00, 0.00
157, 187500.00, 187500.00, 187500.00, 35430.24, -103560.48, -126727.13, -187500.02, -187500.02, 0.00, 0.00, 0.00
158, 187500.00, 187500.00, 187500.00, 35453.55, -103597.23, -126711.19, -187500.02, -187500.02, 0.00, 0.00, 0.00
159, 187500.00, 187500.00, 187500.00, 35466.43, -103615.06, -126700.32, -187500.02, -187500.02, -176.00, -288.00, 8656.00
160, 187500.00, 187500.00, 187500.00, 35448.70, -103722.44, -126793.93, -187500.02, -187500.02, 0.00, 0.00, 0.00
161, 187500.00, 187500.00, 187500.00, 35429.93, -103847.56, -126885.44, -187500.02, -187500.02, 0.00, 0.00, 0.00
162, 187500.00, 187500.00, 187500.00, 35442.58, -103873.94, -126868.19, -187500.02, -187500.02, 0.00, 0.00, 0.00
163, 187500.00, 187500.00, 187500.00, 35455.81, -103834.45, -126818.45, -187500.02, -187500.02, 0.00, 0.00, 0.00
164, 187500.00, 187500.00, 187500.00, 35440.66, -103895.98, -126883.52, -187500.02, -187500.02, 0.00, 0.00, 0.00
165, 187500.00, 187500.00, 187500.00, 35417.86, -104007.09, -126989.60, -187500.02, -187500.02, 0.00, 0.00, 0.00
166, 187500.00, 187500.00, 187500.00, 35427.38, -104062.99, -126989.30, -187500.02, -187500.02, 0.00, 0.00, 0.00
167, 187500.00, 187500.00, 187500.00, 35448.03, -104057.00, -126946.02, -187500.02, -187500.02, 0.00, 0.00, 0.00
168, 187500.00, 187500.00, 187500.00, 35439.25, -104125.48, -127003.23, -187500.02, -187500.02, 0.00, 0.00, 0.00
169, 187500.00, 187500.00, 187500.00, 35412.52, -104272.76, -127125.09, -187500.02, -187500.02, -160.00, -288.00, 8736.00
170, 187500.00, 187500.00, 187500.00, 35412.61, -104340.63, -127139.53, -187500.02, -187500.02, 0.00, 0.00, 0.00
171, 187500.00, 187500.00, 187500.00, 35436.59, -104338.23, -127083.86, -187500.02, -187500.02, 0.00, 0.00, 0.00
172, 187500.00, 187500.00, 187500.00, 35440.16, -104401.04, -127126.23, -187500.02, -187500.02, 0.00, 0.00, 0.00
173, 187500.00, 187500.00, 187500.00, 35415.09, -104551.22, -127259.67, -187500.02, -187500.02, 0.00, 0.00, 0.00
174, 187500.00, 187500.00, 187500.00, 35407.64, -104647.31, -127321.16, -187500.02, -187500.02, 0.00, 0.00, 0.00
175, 187500.00, 187500.00, 187500.00, 35430.60, -104659.02, -127294.59, -187500.02, -187500.02, 0.00, 0.00, 0.00
176, 187500.00, 187500.00, 187500.00, 35436.07, -104720.83, -127330.55, -187500.02, -187500.02, 0.00, 0.00, 0.00
177, 187500.00, 187500.00, 187500.00, 35408.63, -104844.63, -127430.76, -187500.02, -187500.02, 0.00, 0.00, 0.00
178, 187500.00, 187500.00, 187500.00, 35394.39, -104913.32, -127474.74, -187500.02, -187500.02, 0.00, 0.00, 0.00
179, 187500.00, 187500.00, 187500.00, 35416.23, -104925.88, -127428.14, -187500.02, -187500.02, -176.00, -208.00, 8720.00
180, 187500.00, 187500.00, 187500.00, 35422.95, -104952.14, -127422.41, -187500.02, -187500.02, 0.00, 0.00, 0.00
181, 187500.00, 187500.00, 187500.00, 35395.08, -105037.41, -127519.31, -187500.02, -187500.02, 0.00, 0.00, 0.00
182, 187500.00, 187500.00, 187500.00, 35376.51, -105132.88, -127602.17, -187500.02, -187500.02, 0.00, 0.00, 0.00
183, 187500.00, 187500.00, 187500.00, 35397.99, -105172.20, -127595.98, -187500.02, -187500.02, 0.00, 0.00, 0.00
184, 187500.00, 187500.00, 187500.00, 35413.32, -105210.75, -127584.34, -187500.02, -187500.02, 0.00, 0.00, 0.00
185, 187500.00, 187500.00, 187500.00, 35392.22, -105320.84, -127658.84, -187500.02, -187500.02, 0.00, 0.00, 0.00
186, 187500.00, 187500.00, 187500.00, 35368.10, -105419.52, -127726.29, -187500.02, -187500.02, 0.00, 0.00, 0.00
187, 187500.00, 187500.00, 187500.00, 35380.46, -105440.88, -127688.78, -187500.02, -187500.02, 0.00, 0.00, 0.00
188, 187500.00, 187500.00, 187500.00, 35401.90, -105429.02, -127650.16, -187500.02, -187500.02, 0.00, 0.00, 0.00
189, 187500.00, 187500.00, 187500.00, 35393.34, -105525.63, -127737.16, -187500.02, -187500.02, -144.00, -240.00, 8704.00
190, 187500.00, 187500.00, 187500.00, 35366.70, -105650.50, -127847.23, -187500.02, -187500.02, 0.00, 0.00, 0.00
191, 187500.00, 187500.00, 187500.00, 35370.94, -105698.60, -127853.85, -187500.02, -187500.02, 0.00, 0.00, 0.00
192, 187500.00, 187500.00, 187500.00, 35389.14, -105697.71, -127823.25, -187500.02, -187500.02, 0.00, 0.00, 0.00
193, 187500.00, 187500.00, 187500.00, 35380.48, -105771.13, -127871.45, -187500.02, -187500.02, 0.00, 0.00, 0.00
194, 187500.00, 187500.00, 187500.00, 35358.60, -105905.18, -127975.34, -187500.02, -187500.02, 0.00, 0.00, 0.00
195, 187500.00, 187500.00, 187500.00, 35363.99, -105961.26, -127987.52, -187500.02, -187500.02, 0.00, 0.00, 0.00
196, 187500.00, 187500.00, 187500.00, 35390.05, -105953.26, -127930.61, -187500.02, -187500.02, 0.00, 0.00, 0.00
197, 187500.00, 187500.00, 187500.00, 35395.75, -106039.06, -127981.59, -187500.02, -187500.02, 0.00, 0.00, 0.00
198, 187500.00, 187500.00, 187500.00, 35369.02, -106156.08, -128089.26, -187500.02, -187500.02, 0.00, 0.00, 0.00
199, 187500.00, 187500.00, 187500.00, 35369.33, -106255.32, -128147.40, -187500.02, -187500.02, -112.00, -240.00, 8688.00
200, 187500.00, 187500.00, 187500.00, 35393.50, -106258.05, -128097.59, -187500.02, -187500.02, 0.00, 0.00, 0.00
201, 187500.00, 187500.00, 187500.00, 35399.64, -106258.58, -128077.32, -187500.02, -187500.02, 0.00, 0.00, 0.00
202, 187500.00, 187500.00, 187500.00, 35381.83, -106368.22, -128176.55, -187500.02, -187500.02, 0.00, 0.00, 0.00
203, 187500.00, 187500.00, 187500.00, 35376.57, -106490.79, -128252.49, -187500.02, -187500.02, 0.00, 0.00, 0.00
204, 187500.00, 187500.00, 187500.00, 35399.93, -106497.97, -128197.55, -187500.02, -187500.02, 0.00, 0.00, 0.00
205, 187500.00, 187500.00, 187500.00, 35418.44, -106512.09, -128184.45, -187500.02, -187500.02, 0.00, 0.00, 0.00
206, 187500.00, 187500.00, 187500.00, 35405.16, -106613.55, -128287.59, -187500.02, -187500.02, 0.00, 0.00, 0.00
207, 187500.00, 187500.00, 187500.00, 35394.14, -106737.27, -128392.88, -187500.02, -187500.02, 0.00, 0.00, 0.00
208, 187500.00, 187500.00, 187500.00, 35416.43, -106767.30, -128380.28, -187500.02, -187500.02, 0.00, 0.00, 0.00
209, 187500.00, 187500.00, 187500.00, 35437.21, -106782.37, -128350.13, -187500.02, -187500.02, -96.00, -224.00, 8608.00
210, 187500.00, 187500.00, 187500.00, 35421.14, -106863.62, -128405.58, -187500.02, -187500.02, 0.00, 0.00, 0.00
211, 187500.00, 187500.00, 187500.00, 35399.98, -106976.43, -128489.02, -187500.02, -187500.02, 0.00, 0.00, 0.00
212, 187500.00, 187500.00, 187500.00, 35413.32, -107021.80, -128476.05, -187500.02, -187500.02, 0.00, 0.00, 0.00
213, 187500.00, 187500.00, 187500.00, 35436.88, -107024.71, -128430.86, -187500.02, -187500.02, 0.00, 0.00, 0.00
214, 187500.00, 187500.00, 187500.00, 35429.59, -107093.33, -128475.86, -187500.02, -187500.02, 0.00, 0.00, 0.00
215, 187500.00, 187500.00, 187500.00, 35411.44, -107212.69, -128573.40, -187500.02, -187500.02, 0.00, 0.00, 0.00
216, 187500.00, 187500.00, 187500.00, 35425.21, -107284.57, -128592.64, -187500.02, -187500.02, 0.00, 0.00, 0.00
217, 187500.00, 187500.00, 187500.00, 35447.94, -107290.72, -128552.41, -187500.02, -187500.02, 0.00, 0.00, 0.00
218, 187500.00, 187500.00, 187500.00, 35442.31, -107337.45, -128584.33, -187500.02, -187500.02, 0.00, 0.00, 0.00
219, 187500.00, 187500.00, 187500.00, 35417.66, -107438.33, -128691.77, -187500.02, -187500.02, -128.00, -240.00, 8624.00
220, 187500.00, 187500.00, 187500.00, 35422.84, -107519.22, -128735.90, -187500.02, -187500.02, 0.00, 0.00, 0.00
221, 187500.00, 187500.00, 187500.00, 35451.16, -107511.59, -128690.81, -187500.02, -187500.02, 0.00, 0.00, 0.00
222, 187500.00, 187500.00, 187500.00, 35458.88, -107568.98, -128725.77, -187500.02, -187500.02, 0.00, 0.00, 0.00
223, 187500.00, 187500.00, 187500.00, 35434.75, -107698.16, -128846.98, -187500.02, -187500.02, 0.00, 0.00, 0.00
224, 187500.00, 187500.00, 187500.00, 35429.50, -107798.91, -128898.35, -187500.02, -187500.02, 0.00, 0.00, 0.00
225, 187500.00, 187500.00, 187500.00, 35454.09, -107805.79, -128857.78, -187500.02, -187500.02, 0.00, 0.00, 0.00
226, 187500.00, 187500.00, 187500.00, 35467.28, -107841.66, -128854.61, -187500.02, -187500.02, 0.00, 0.00, 0.00
227, 187500.00, 187500.00, 187500.00, 35446.38, -107946.77, -128949.22, -187500.02, -187500.02, 0.00, 0.00, 0.00
228, 187500.00, 187500.00, 187500.00, 35437.13, -108037.35, -129018.94, -187500.02, -187500.02, 0.00, 0.00, 0.00
229, 187500.00, 187500.00, 187500.00, 35459.28, -108080.88, -128995.38, -187500.02, -187500.02, -144.00, -224.00, 8640.00
230, 187500.00, 187500.00, 187500.00, 35473.09, -108091.76, -128977.05, -187500.02, -187500.02, 0.00, 0.00, 0.00
231, 187500.00, 187500.00, 187500.00, 35457.75, -108186.58, -129057.72, -187500.02, -187500.02, 0.00, 0.00, 0.00
232, 187500.00, 187500.00, 187500.00, 35446.04, -108311.05, -129149.63, -187500.02, -187500.02, 0.00, 0.00, 0.00
233, 187500.00, 187500.00, 187500.00, 35468.84, -108366.04, -129147.84, -187500.02, -187500.02, 0.00, 0.00, 0.00
234, 187500.00, 187500.00, 187500.00, 35480.55, -108357.38, -129112.21, -187500.02, -187500.02, 0.00, 0.00, 0.00
235, 187500.00, 187500.00, 187500.00, 35467.19, -108418.30, -129192.16, -187500.02, -187500.02, 0.00, 0.00, 0.00
236, 187500.00, 187500.00, 187500.00, 35452.08, -108560.32, -129311.72, -187500.02, -187500.02, 0.00, 0.00, 0.00
237, 187500.00, 187500.00, 187500.00, 35462.52, -108611.88, -129312.66, -187500.02, -187500.02, 0.00, 0.00, 0.00
238, 187500.00, 187500.00, 187500.00, 35486.10, -108582.96, -129260.71, -187500.02, -187500.02, 0.00, 0.00, 0.00
239, 187500.00, 187500.00, 187500.00, 35483.84, -108689.22, -129337.49, -187500.02, -187500.02, 0.00, 0.00, 0.00
240, 187500.00, 187500.00, 187500.00, 35457.96, -108820.96, -129449.45, -187500.02, -187500.02, -96.00, -272.00, 8656.00
241, 187500.00, 187500.00, 187500.00, 35462.70, -108855.61, -129434.97, -187500.02, -187500.02, 0.00, 0.00, 0.00
242, 187500.00, 187500.00, 187500.00, 35489.47, -108838.84, -129384.77, -187500.02, -187500.02, 0.00, 0.00, 0.00
243, 187500.00, 187500.00, 187500.00, 35493.59, -108922.70, -129437.70, -187500.02, -187500.02, 0.00, 0.00, 0.00
244, 187500.00, 187500.00, 187500.00, 35467.84, -109048.91, -129548.76, -187500.02, -187500.02, 0.00, 0.00, 0.00
245, 187500.00, 187500.00, 187500.00, 35469.51, -109137.69, -129601.94, -187500.02, -187500.02, 0.00, 0.00, 0.00
246, 187500.00, 187500.00, 187500.00, 35496.67, -109152.44, -129561.63, -187500.02, -187500.02, 0.00, 0.00, 0.00
247, 187500.00, 187500.00, 187500.00, 35498.68, -109175.10, -129564.34, -187500.02, -187500.02, 0.00, 0.00, 0.00
248, 187500.00, 187500.00, 187500.00, 35474.52, -109276.02, -129672.73, -187500.02, -187500.02, 0.00, 0.00, 0.00
249, 187500.00, 187500.00, 187500.00, 35465.02, -109365.31, -129728.76, -187500.02, -187500.02, 0.00, 0.00, 0.00
250, 187500.00, 187500.00, 187500.00, 35485.88, -109376.85, -129688.23, -187500.02, -187500.02, -160.00, -272.00, 8656.00
251, 187500.00, 187500.00, 187500.00, 35492.29, -109415.67, -129679.72, -187500.02, -187500.02, 0.00, 0.00, 0.00
252, 187500.00, 187500.00, 187500.00, 35465.80, -109547.55, -129776.26, -187500.02, -187500.02, 0.00, 0.00, 0.00
253, 187500.00, 187500.00, 187500.00, 35446.16, -109640.80, -129833.34, -187500.02, -187500.02, 0.00, 0.00, 0.00
254, 187500.00, 187500.00, 187500.00, 35475.10, -109689.23, -129809.23, -187500.02, -187500.02, 0.00, 0.00, 0.00
255, 187500.00, 187500.00, 187500.00, 35482.34, -109700.21, -129795.03, -187500.02, -187500.02, 0.00, 0.00, 0.00
0, 187500.00, 187500.00, 187500.00, 35456.75, -109759.20, -129872.55, -187500.02, -187500.02, 0.00, 0.00, 0.00
1, 187500.00, 187500.00, 187500.00, 35436.70, -109880.99, -129981.20, -187500.02, -187500.02, 0.00, 0.00, 0.00
2, 187500.00, 187500.00, 187500.00, 35452.12, -109925.92, -129979.79, -187500.02, -187500.02, 0.00, 0.00, 0.00
3, 187500.00, 187500.00, 187500.00, 35462.67, -109916.06, -129936.85, -187500.02, -187500.02, 0.00, 0.00, 0.00
4, 187500.00, 187500.00, 187500.00, 35450.27, -109998.61, -129994.73, -187500.02, -187500.02, -192.00, -240.00, 8672.00
5, 187500.00, 187500.00, 187500.00, 35425.86, -110125.45, -130102.02, -187500.02, -187500.02, 0.00, 0.00, 0.00
6, 187500.00, 187500.00, 187500.00, 35436.54, -110179.39, -130113.01, -187500.02, -187500.02, 0.00, 0.00, 0.00
7, 187500.00, 187500.00, 187500.00, 35462.90, -110207.71, -130077.94, -187500.02, -187500.02, 0.00, 0.00, 0.00
8, 187500.00, 187500.00, 187500.00, 35455.48, -110270.07, -130130.66, -187500.02, -187500.02, 0.00, 0.00, 0.00
9, 187500.00, 187500.00, 187500.00, 35432.32, -110393.74, -130248.20, -187500.02, -187500.02, 0.00, 0.00, 0.00
10, 187500.00, 187500.00, 187500.00, 35436.41, -110477.90, -130285.03, -187500.02, -187500.02, 0.00, 0.00, 0.00
11, 187500.00, 187500.00, 187500.00, 35459.54, -110496.88, -130248.35, -187500.02, -187500.02, 0.00, 0.00, 0.00
12, 187500.00, 187500.00, 187500.00, 35458.76, -110546.96, -130271.02, -187500.02, -187500.02, 0.00, 0.00, 0.00
13, 187500.00, 187500.00, 187500.00, 35430.51, -110643.99, -130375.15, -187500.02, -187500.02, 0.00, 0.00, 0.00
14, 187500.00, 187500.00, 187500.00, 35429.01, -110733.58, -130424.81, -187500.02, -187500.02, -176.00, -208.00, 8656.00
15, 187500.00, 187500.00, 187500.00, 35450.34, -110735.91, -130356.24, -187500.02, -187500.02, 0.00, 0.00, 0.00
16, 187500.00, 187500.00, 187500.00, 35454.31, -110772.49, -130355.48, -187500.02, -187500.02, 0.00, 0.00, 0.00
17, 187500.00, 187500.00, 187500.00, 35427.92, -110875.58, -130443.13, -187500.02, -187500.02, 0.00, 0.00, 0.00
18, 187500.00, 187500.00, 187500.00, 35415.76, -110945.59, -130490.89, -187500.02, -187500.02, 0.00, 0.00, 0.00
19, 187500.00, 187500.00, 187500.00, 35443.56, -110959.02, -130446.01, -187500.02, -187500.02, 0.00, 0.00, 0.00
20, 187500.00, 187500.00, 187500.00, 35457.06, -110974.55, -130427.84, -187500.02, -187500.02, 0.00, 0.00, 0.00
21, 187500.00, 187500.00, 187500.00, 35437.28, -111069.03, -130523.07, -187500.02, -187500.02, 0.00, 0.00, 0.00
22, 187500.00, 187500.00, 187500.00, 35426.31, -111215.15, -130630.63, -187500.02, -187500.02, 0.00, 0.00, 0.00
23, 187500.00, 187500.00, 187500.00, 35448.12, -111263.72, -130618.49, -187500.02, -187500.02, 0.00, 0.00, 0.00
24, 187500.00, 187500.00, 187500.00, 35462.23, -111277.73, -130600.88, -187500.02, -187500.02, -208.00, -224.00, 8656.00
25, 187500.00, 187500.00, 187500.00, 35445.53, -111350.51, -130681.17, -187500.02, -187500.02, 0.00, 0.00, 0.00
26, 187500.00, 187500.00, 187500.00, 35426.46, -111469.76, -130792.50, -187500.02, -187500.02, 0.00, 0.00, 0.00
27, 187500.00, 187500.00, 187500.00, 35442.55, -111512.05, -130786.91, -187500.02, -187500.02, 0.00, 0.00, 0.00
28, 187500.00, 187500.00, 187500.00, 35461.29, -111517.63, -130736.49, -187500.02, -187500.02, 0.00, 0.00, 0.00
29, 187500.00, 187500.00, 187500.00, 35446.65, -111568.69, -130768.05, -187500.02, -187500.02, 0.00, 0.00, 0.00
30, 187500.00, 187500.00, 187500.00, 35425.12, -111679.10, -130857.73, -187500.02, -187500.02, 0.00, 0.00, 0.00
31, 187500.00, 187500.00, 187500.00, 35437.10, -111732.30, -130885.04, -187500.02, -187500.02, 0.00, 0.00, 0.00
32, 187500.00, 187500.00, 187500.00, 35465.36, -111761.76, -130874.84, -187500.02, -187500.02, 0.00, 0.00, 0.00
33, 187500.00, 187500.00, 187500.00, 35458.40, -111841.60, -130935.13, -187500.02, -187500.02, 0.00, 0.00, 0.00
34, 187500.00, 187500.00, 187500.00, 35427.09, -111939.19, -131013.78, -187500.02, -187500.02, -176.00, -208.00, 8688.00
35, 187500.00, 187500.00, 187500.00, 35428.32, -112002.89, -131020.58, -187500.02, -187500.02, 0.00, 0.00, 0.00
36, 187500.00, 187500.00, 187500.00, 35451.90, -112008.23, -130964.05, -187500.02, -187500.02, 0.00, 0.00, 0.00
37, 187500.00, 187500.00, 187500.00, 35450.76, -112045.88, -130981.42, -187500.02, -187500.02, 0.00, 0.00, 0.00
38, 187500.00, 187500.00, 187500.00, 35423.73, -112146.21, -131083.97, -187500.02, -187500.02, 0.00, 0.00, 0.00
39, 187500.00, 187500.00, 187500.00, 35421.28, -112228.71, -131139.11, -187500.02, -187500.02, 0.00, 0.00, 0.00
40, 187500.00, 187500.00, 187500.00, 35452.21, -112243.95, -131093.17, -187500.02, -187500.02, 0.00, 0.00, 0.00
41, 187500.00, 187500.00, 187500.00, 35458.92, -112275.80, -131099.03, -187500.02, -187500.02, 0.00, 0.00, 0.00
42, 187500.00, 187500.00, 187500.00, 35435.36, -112390.98, -131213.44, -187500.02, -187500.02, 0.00, 0.00, 0.00
43, 187500.00, 187500.00, 187500.00, 35420.85, -112484.62, -131291.38, -187500.02, -187500.02, 0.00, 0.00, 0.00
44, 187500.00, 187500.00, 187500.00, 35442.00, -112505.02, -131248.02, -187500.02, -187500.02, -176.00, -256.00, 8640.00
45, 187500.00, 187500.00, 187500.00, 35455.52, -112524.73, -131224.63, -187500.02, -187500.02, 0.00, 0.00, 0.00
46, 187500.00, 187500.00, 187500.00, 35435.52, -112611.33, -131309.28, -187500.02, -187500.02, 0.00, 0.00, 0.00
47, 187500.00, 187500.00, 187500.00, 35420.99, -112705.29, -131399.63, -187500.02, -187500.02, 0.00, 0.00, 0.00
48, 187500.00, 187500.00, 187500.00, 35438.82, -112744.92, -131385.67, -187500.02, -187500.02, 0.00, 0.00, 0.00
49, 187500.00, 187500.00, 187500.00, 35454.18, -112744.30, -131360.28, -187500.02, -187500.02, 0.00, 0.00, 0.00
50, 187500.00, 187500.00, 187500.00, 35438.67, -112808.00, -131430.41, -187500.02, -187500.02, 0.00, 0.00, 0.00
51, 187500.00, 187500.00, 187500.00, 35421.52, -112940.63, -131534.27, -187500.02, -187500.02, 0.00, 0.00, 0.00
52, 187500.00, 187500.00, 187500.00, 35431.54, -112980.66, -131514.08, -187500.02, -187500.02, 0.00, 0.00, 0.00
53, 187500.00, 187500.00, 187500.00, 35458.11, -112983.13, -131474.41, -187500.02, -187500.02, 0.00, 0.00, 0.00
54, 187500.00, 187500.00, 187500.00, 35449.38, -113021.97, -131513.77, -187500.02, -187500.02, -160.00, -256.00, 8640.00
55, 187500.00, 187500.00, 187500.00, 35433.62, -113147.84, -131629.91, -187500.02, -187500.02, 0.00, 0.00, 0.00
56, 187500.00, 187500.00, 187500.00, 35443.34, -113232.73, -131662.34, -187500.02, -187500.02, 0.00, 0.00, 0.00
57, 187500.00, 187500.00, 187500.00, 35466.83, -113235.81, -131616.81, -187500.02, -187500.02, 0.00, 0.00, 0.00
58, 187500.00, 187500.00, 187500.00, 35462.20, -113280.23, -131647.34, -187500.02, -187500.02, 0.00, 0.00, 0.00
59, 187500.00, 187500.00, 187500.00, 35438.22, -113389.86, -131760.75, -187500.02, -187500.02, 0.00, 0.00, 0.00
60, 187500.00, 187500.00, 187500.00, 35443.43, -113503.23, -131810.28, -187500.02, -187500.02, 0.00, 0.00, 0.00
61, 187500.00, 187500.00, 187500.00, 35470.74, -113525.65, -131766.28, -187500.02, -187500.02, 0.00, 0.00, 0.00
62, 187500.00, 187500.00, 187500.00, 35470.86, -113565.88, -131776.42, -187500.02, -187500.02, 0.00, 0.00, 0.00
63, 187500.00, 187500.00, 187500.00, 35442.91, -113667.71, -131862.55, -187500.02, -187500.02, 0.00, 0.00, 0.00
64, 187500.00, 187500.00, 187500.00, 35436.59, -113771.07, -131916.73, -187500.02, -187500.02, -160.00, -256.00, 8672.00
65, 187500.00, 187500.00, 187500.00, 35461.89, -113799.32, -131878.89, -187500.02, -187500.02, 0.00, 0.00, 0.00
66, 187500.00, 187500.00, 187500.00, 35473.43, -113841.05, -131897.97, -187500.02, -187500.02, 0.00, 0.00, 0.00
67, 187500.00, 187500.00, 187500.00, 35447.72, -113916.02, -131978.48, -187500.02, -187500.02, 0.00, 0.00, 0.00
68, 187500.00, 187500.00, 187500.00, 35431.80, -113997.58, -132032.98, -187500.02, -187500.02, 0.00, 0.00, 0.00
69, 187500.00, 187500.00, 187500.00, 35453.15, -114021.05, -132006.88, -187500.02, -187500.02, 0.00, 0.00, 0.00
70, 187500.00, 187500.00, 187500.00, 35465.42, -114016.31, -131969.75, -187500.02, -187500.02, 0.00, 0.00, 0.00
71, 187500.00, 187500.00, 187500.00, 35450.16, -114089.71, -132049.50, -187500.02, -187500.02, 0.00, 0.00, 0.00
72, 187500.00, 187500.00, 187500.00, 35435.49, -114204.83, -132141.81, -187500.02, -187500.02, 0.00, 0.00, 0.00
73, 187500.00, 187500.00, 187500.00, 35454.16, -114235.72, -132120.08, -187500.02, -187500.02, 0.00, 0.00, 0.00
74, 187500.00, 187500.00, 187500.00, 35475.79, -114234.98, -132089.66, -187500.02, -187500.02, -176.00, -304.00, 8672.00
75, 187500.00, 187500.00, 187500.00, 35465.58, -114326.40, -132164.83, -187500.02, -187500.02, 0.00, 0.00, 0.00
76, 187500.00, 187500.00, 187500.00, 35443.11, -114461.98, -132268.70, -187500.02, -187500.02, 0.00, 0.00, 0.00
77, 187500.00, 187500.00, 187500.00, 35446.73, -114480.02, -132262.23, -187500.02, -187500.02, 0.00, 0.00, 0.00
78, 187500.00, 187500.00, 187500.00, 35472.71, -114464.80, -132226.08, -187500.02, -187500.02, 0.00, 0.00, 0.00
79, 187500.00, 187500.00, 187500.00, 35470.18, -114547.48, -132295.55, -187500.02, -187500.02, 0.00, 0.00, 0.00
80, 187500.00, 187500.00, 187500.00, 35451.59, -114677.32, -132414.91, -187500.02, -187500.02, 0.00, 0.00, 0.00
81, 187500.00, 187500.00, 187500.00, 35453.13, -114750.99, -132431.28, -187500.02, -187500.02, 0.00, 0.00, 0.00
82, 187500.00, 187500.00, 187500.00, 35472.73, -114742.92, -132370.77, -187500.02, -187500.02, 0.00, 0.00, 0.00
83, 187500.00, 187500.00, 187500.00, 35470.00, -114776.78, -132388.17, -187500.02, -187500.02, 0.00, 0.00, 0.00
84, 187500.00, 187500.00, 187500.00, 35446.25, -114898.69, -132498.31, -187500.02, -187500.02, -144.00, -256.00, 8688.00
85, 187500.00, 187500.00, 187500.00, 35443.81, -114985.39, -132544.77, -187500.02, -187500.02, 0.00, 0.00, 0.00
86, 187500.00, 187500.00, 187500.00, 35470.00, -114977.73, -132503.70, -187500.02, -187500.02, 0.00, 0.00, 0.00
87, 187500.00, 187500.00, 187500.00, 35482.03, -115026.14, -132528.89, -187500.02, -187500.02, 0.00, 0.00, 0.00
88, 187500.00, 187500.00, 187500.00, 35458.98, -115160.56, -132641.11, -187500.02, -187500.02, 0.00, 0.00, 0.00
89, 187500.00, 187500.00, 187500.00, 35446.71, -115252.05, -132705.47, -187500.02, -187500.02, 0.00, 0.00, 0.00
90, 187500.00, 187500.00, 187500.00, 35469.20, -115270.45, -132678.00, -187500.02, -187500.02, 0.00, 0.00, 0.00
91, 187500.00, 187500.00, 187500.00, 35478.86, -115282.29, -132676.86, -187500.02, -187500.02, 0.00, 0.00, 0.00
92, 187500.00, 187500.00, 187500.00, 35456.82, -115368.99, -132759.19, -187500.02, -187500.02, 0.00, 0.00, 0.00
93, 187500.00, 187500.00, 187500.00, 35442.38, -115483.19, -132830.06, -187500.02, -187500.02, 0.00, 0.00, 0.00
94, 187500.00, 187500.00, 187500.00, 35461.11, -115510.88, -132807.06, -187500.02, -187500.02, -128.00, -240.00, 8720.00
95, 187500.00, 187500.00, 187500.00, 35475.66, -115519.84, -132787.33, -187500.02, -187500.02, 0.00, 0.00, 0.00
96, 187500.00, 187500.00, 187500.00, 35458.96, -115609.50, -132870.88, -187500.02, -187500.02, 0.00, 0.00, 0.00
97, 187500.00, 187500.00, 187500.00, 35437.86, -115747.39, -132979.38, -187500.02, -187500.02, 0.00, 0.00, 0.00
98, 187500.00, 187500.00, 187500.00, 35448.82, -115807.34, -132971.17, -187500.02, -187500.02, 0.00, 0.00, 0.00
99, 187500.00, 187500.00, 187500.00, 35467.05, -115794.68, -132924.33, -187500.02, -187500.02, 0.00, 0.00, 0.00
100, 187500.00, 187500.00, 187500.00, 35454.58, -115829.95, -132965.84, -187500.02, -187500.02, 0.00, 0.00, 0.00
101, 187500.00, 187500.00, 187500.00, 35430.84, -115964.40, -133090.59, -187500.02, -187500.02, 0.00, 0.00, 0.00
102, 187500.00, 187500.00, 187500.00, 35436.25, -116040.73, -133109.13, -187500.02, -187500.02, 0.00, 0.00, 0.00
103, 187500.00, 187500.00, 187500.00, 35456.93, -116031.57, -133059.80, -187500.02, -187500.02, 0.00, 0.00, 0.00
104, 187500.00, 187500.00, 187500.00, 35451.54, -116100.21, -133109.94, -187500.02, -187500.02, -160.00, -208.00, 8720.00
105, 187500.00, 187500.00, 187500.00, 35422.35, -116225.96, -133207.58, -187500.02, -187500.02, 0.00, 0.00, 0.00
106, 187500.00, 187500.00, 187500.00, 35420.94, -116305.33, -133234.88, -187500.02, -187500.02, 0.00, 0.00, 0.00
107, 187500.00, 187500.00, 187500.00, 35443.52, -116331.75, -133201.06, -187500.02, -187500.02, 0.00, 0.00, 0.00
108, 187500.00, 187500.00, 187500.00, 35442.58, -116375.74, -133230.97, -187500.02, -187500.02, 0.00, 0.00, 0.00
109, 187500.00, 187500.00, 187500.00, 35413.36, -116496.86, -133338.67, -187500.02, -187500.02, 0.00, 0.00, 0.00
110, 187500.00, 187500.00, 187500.00, 35407.38, -116557.21, -133363.63, -187500.02, -187500.02, 0.00, 0.00, 0.00
111, 187500.00, 187500.00, 187500.00, 35434.51, -116565.05, -133335.45, -187500.02, -187500.02, 0.00, 0.00, 0.00
112, 187500.00, 187500.00, 187500.00, 35442.51, -116594.02, -133351.42, -187500.02, -187500.02, 0.00, 0.00, 0.00
113, 187500.00, 187500.00, 187500.00, 35418.24, -116699.19, -133437.70, -187500.02, -187500.02, 0.00, 0.00, 0.00
114, 187500.00, 187500.00, 187500.00, 35403.78, -116797.02, -133497.39, -187500.02, -187500.02, -144.00, -256.00, 8704.00
115, 187500.00, 187500.00, 187500.00, 35424.21, -116815.94, -133484.97, -187500.02, -187500.02, 0.00, 0.00, 0.00
116, 187500.00, 187500.00, 187500.00, 35439.02, -116860.21, -133486.38, -187500.02, -187500.02, 0.00, 0.00, 0.00
117, 187500.00, 187500.00, 187500.00, 35419.76, -116972.33, -133582.36, -187500.02, -187500.02, 0.00, 0.00, 0.00
118, 187500.00, 187500.00, 187500.00, 35405.41, -117094.37, -133675.75, -187500.02, -187500.02, 0.00, 0.00, 0.00
119, 187500.00, 187500.00, 187500.00, 35424.90, -117133.33, -133659.42, -187500.02, -187500.02, 0.00, 0.00, 0.00
120, 187500.00, 187500.00, 187500.00, 35443.23, -117127.70, -133610.20, -187500.02, -187500.02, 0.00, 0.00, 0.00
121, 187500.00, 187500.00, 187500.00, 35428.30, -117187.11, -133641.56, -187500.02, -187500.02, 0.00, 0.00, 0.00
122, 187500.00, 187500.00, 187500.00, 35407.51, -117313.20, -133737.08, -187500.02, -187500.02, 0.00, 0.00, 0.00
123, 187500.00, 187500.00, 187500.00, 35418.13, -117358.05, -133726.89, -187500.02, -187500.02, 0.00, 0.00, 0.00
124, 187500.00, 187500.00, 187500.00, 35440.88, -117336.59, -133660.59, -187500.02, -187500.02, -144.00, -224.00, 8688.00
125, 187500.00, 187500.00, 187500.00, 35434.18, -117407.83, -133725.25, -187500.02, -187500.02, 0.00, 0.00, 0.00
126, 187500.00, 187500.00, 187500.00, 35405.65, -117523.59, -133841.09, -187500.02, -187500.02, 0.00, 0.00, 0.00
127, 187500.00, 187500.00, 187500.00, 35408.78, -117585.41, -133852.91, -187500.02, -187500.02, 0.00, 0.00, 0.00
128, 187500.00, 187500.00, 187500.00, 35429.41, -117577.26, -133797.11, -187500.02, -187500.02, 0.00, 0.00, 0.00
129, 187500.00, 187500.00, 187500.00, 35422.44, -117634.30, -133841.64, -187500.02, -187500.02, 0.00, 0.00, 0.00
130, 187500.00, 187500.00, 187500.00, 35393.85, -117760.14, -133957.91, -187500.02, -187500.02, 0.00, 0.00, 0.00
131, 187500.00, 187500.00, 187500.00, 35393.52, -117842.02, -133990.72, -187500.02, -187500.02, 0.00, 0.00, 0.00
132, 187500.00, 187500.00, 187500.00, 35413.97, -117819.75, -133928.09, -187500.02, -187500.02, 0.00, 0.00, 0.00
133, 187500.00, 187500.00, 187500.00, 35418.93, -117855.24, -133947.00, -187500.02, -187500.02, 0.00, 0.00, 0.00
134, 187500.00, 187500.00, 187500.00, 35394.86, -117965.10, -134055.50, -187500.02, -187500.02, 0.00, 0.00, 0.00
135, 187500.00, 187500.00, 187500.00, 35391.33, -118051.05, -134116.47, -187500.02, -187500.02, -128.00, -240.00, 8736.00
136, 187500.00, 187500.00, 187500.00, 35417.95, -118069.42, -134078.09, -187500.02, -187500.02, 0.00, 0.00, 0.00
137, 187500.00, 187500.00, 187500.00, 35427.80, -118091.08, -134089.50, -187500.02, -187500.02, 0.00, 0.00, 0.00
138, 187500.00, 187500.00, 187500.00, 35406.01, -118187.23, -134200.67, -187500.02, -187500.02, 0.00, 0.00, 0.00
139, 187500.00, 187500.00, 187500.00, 35395.02, -118297.48, -134290.97, -187500.02, -187500.02, 0.00, 0.00, 0.00
140, 187500.00, 187500.00, 187500.00, 35418.26, -118332.97, -134282.61, -187500.02, -187500.02, 0.00, 0.00, 0.00
141, 187500.00, 187500.00, 187500.00, 35434.51, -118363.62, -134271.58, -187500.02, -187500.02, 0.00, 0.00, 0.00
142, 187500.00, 187500.00, 187500.00, 35415.46, -118459.95, -134334.97, -187500.02, -187500.02, 0.00, 0.00, 0.00
143, 187500.00, 187500.00, 187500.00, 35394.12, -118564.20, -134402.58, -187500.02, -187500.02, 0.00, 0.00, 0.00
144, 187500.00, 187500.00, 187500.00, 35411.55, -118577.77, -134386.08, -187500.02, -187500.02, 0.00, 0.00, 0.00
145, 187500.00, 187500.00, 187500.00, 35441.13, -118613.91, -134373.13, -187500.02, -187500.02, -144.00, -240.00, 8720.00
146, 187500.00, 187500.00, 187500.00, 35432.03, -118723.05, -134454.17, -187500.02, -187500.02, 0.00, 0.00, 0.00
147, 187500.00, 187500.00, 187500.00, 35405.09, -118837.54, -134551.19, -187500.02, -187500.02, 0.00, 0.00, 0.00
148, 187500.00, 187500.00, 187500.00, 35414.57, -118863.98, -134521.27, -187500.02, -187500.02, 0.00, 0.00, 0.00
149, 187500.00, 187500.00, 187500.00, 35439.05, -118865.14, -134459.78, -187500.02, -187500.02, 0.00, 0.00, 0.00
150, 187500.00, 187500.00, 187500.00, 35430.98, -118943.64, -134515.41, -187500.02, -187500.02, 0.00, 0.00, 0.00
151, 187500.00, 187500.00, 187500.00, 35403.93, -119086.72, -134641.11, -187500.02, -187500.02, 0.00, 0.00, 0.00
152, 187500.00, 187500.00, 187500.00, 35402.34, -119140.43, -134661.55, -187500.02, -187500.02, 0.00, 0.00, 0.00
153, 187500.00, 187500.00, 187500.00, 35424.79, -119117.52, -134613.84, -187500.02, -187500.02, 0.00, 0.00, 0.00
154, 187500.00, 187500.00, 187500.00, 35427.20, -119174.11, -134665.67, -187500.02, -187500.02, 0.00, 0.00, 0.00
155, 187500.00, 187500.00, 187500.00, 35404.47, -119315.48, -134785.42, -187500.02, -187500.02, -208.00, -336.00, 8688.00
156, 187500.00, 187500.00, 187500.00, 35398.41, -119393.09, -134816.36, -187500.02, -187500.02, 0.00, 0.00, 0.00
157, 187500.00, 187500.00, 187500.00, 35421.86, -119371.70, -134767.88, -187500.02, -187500.02, 0.00, 0.00, 0.00
158, 187500.00, 187500.00, 187500.00, 35431.78, -119428.54, -134805.27, -187500.02, -187500.02, 0.00, 0.00, 0.00
159, 187500.00, 187500.00, 187500.00, 35405.96, -119552.37, -134917.27, -187500.02, -187500.02, 0.00, 0.00, 0.00
160, 187500.00, 187500.00, 187500.00, 35393.72, -119619.02, -134965.45, -187500.02, -187500.02, 0.00, 0.00, 0.00
161, 187500.00, 187500.00, 187500.00, 35418.64, -119640.41, -134927.64, -187500.02, -187500.02, 0.00, 0.00, 0.00
162, 187500.00, 187500.00, 187500.00, 35429.66, -119672.30, -134923.13, -187500.02, -187500.02, 0.00, 0.00, 0.00
163, 187500.00, 187500.00, 187500.00, 35406.97, -119770.12, -135004.67, -187500.02, -187500.02, 0.00, 0.00, 0.00
164, 187500.00, 187500.00, 187500.00, 35389.61, -119875.84, -135082.30, -187500.02, -187500.02, 0.00, 0.00, 0.00
165, 187500.00, 187500.00, 187500.00, 35406.04, -119899.88, -135057.45, -187500.02, -187500.02, -176.00, -320.00, 8704.00
166, 187500.00, 187500.00, 187500.00, 35420.96, -119915.56, -135034.42, -187500.02, -187500.02, 0.00, 0.00, 0.00
167, 187500.00, 187500.00, 187500.00, 35402.21, -120008.03, -135101.58, -187500.02, -187500.02, 0.00, 0.00, 0.00
168, 187500.00, 187500.00, 187500.00, 35384.02, -120111.03, -135187.39, -187500.02, -187500.02, 0.00, 0.00, 0.00
169, 187500.00, 187500.00, 187500.00, 35397.63, -120150.59, -135181.72, -187500.02, -187500.02, 0.00, 0.00, 0.00
170, 187500.00, 187500.00, 187500.00, 35416.85, -120155.30, -135144.25, -187500.02, -187500.02, 0.00, 0.00, 0.00
171, 187500.00, 187500.00, 187500.00, 35403.15, -120228.40, -135196.64, -187500.02, -187500.02, 0.00, 0.00, 0.00
172, 187500.00, 187500.00, 187500.00, 35378.68, -120322.48, -135267.33, -187500.02, -187500.02, 0.00, 0.00, 0.00
173, 187500.00, 187500.00, 187500.00, 35392.76, -120384.41, -135285.98, -187500.02, -187500.02, 0.00, 0.00, 0.00
174, 187500.00, 187500.00, 187500.00, 35417.72, -120408.71, -135263.64, -187500.02, -187500.02, 0.00, 0.00, 0.00
175, 187500.00, 187500.00, 187500.00, 35410.14, -120459.94, -135303.89, -187500.02, -187500.02, -160.00, -320.00, 8672.00
176, 187500.00, 187500.00, 187500.00, 35389.52, -120574.54, -135407.72, -187500.02, -187500.02, 0.00, 0.00, 0.00
177, 187500.00, 187500.00, 187500.00, 35393.65, -120647.25, -135442.67, -187500.02, -187500.02, 0.00, 0.00, 0.00
178, 187500.00, 187500.00, 187500.00, 35421.55, -120644.61, -135385.89, -187500.02, -187500.02, 0.00, 0.00, 0.00
179, 187500.00, 187500.00, 187500.00, 35424.65, -120708.22, -135403.48, -187500.02, -187500.02, 0.00, 0.00, 0.00
180, 187500.00, 187500.00, 187500.00, 35396.07, -120812.72, -135492.88, -187500.02, -187500.02, 0.00, 0.00, 0.00
181, 187500.00, 187500.00, 187500.00, 35392.40, -120902.26, -135543.23, -187500.02, -187500.02, 0.00, 0.00, 0.00
182, 187500.00, 187500.00, 187500.00, 35419.18, -120901.72, -135506.33, -187500.02, -187500.02, 0.00, 0.00, 0.00
183, 187500.00, 187500.00, 187500.00, 35431.02, -120934.24, -135530.33, -187500.02, -187500.02, 0.00, 0.00, 0.00
184, 187500.00, 187500.00, 187500.00, 35405.95, -121023.83, -135638.67, -187500.02, -187500.02, 0.00, 0.00, 0.00
185, 187500.00, 187500.00, 187500.00, 35393.23, -121111.88, -135717.59, -187500.02, -187500.02, -144.00, -272.00, 8672.00
186, 187500.00, 187500.00, 187500.00, 35414.30, -121099.91, -135668.95, -187500.02, -187500.02, 0.00, 0.00, 0.00
187, 187500.00, 187500.00, 187500.00, 35431.16, -121128.39, -135644.78, -187500.02, -187500.02, 0.00, 0.00, 0.00
188, 187500.00, 187500.00, 187500.00, 35416.96, -121229.73, -135722.48, -187500.02, -187500.02, 0.00, 0.00, 0.00
189, 187500.00, 187500.00, 187500.00, 35403.46, -121367.64, -135812.81, -187500.02, -187500.02, 0.00, 0.00, 0.00
190, 187500.00, 187500.00, 187500.00, 35415.13, -121413.73, -135791.33, -187500.02, -187500.02, 0.00, 0.00, 0.00
191, 187500.00, 187500.00, 187500.00, 35428.16, -121405.93, -135750.72, -187500.02, -187500.02, 0.00, 0.00, 0.00
192, 187500.00, 187500.00, 187500.00, 35416.18, -121485.73, -135821.27, -187500.02, -187500.02, 0.00, 0.00, 0.00
193, 187500.00, 187500.00, 187500.00, 35396.85, -121597.42, -135924.47, -187500.02, -187500.02, 0.00, 0.00, 0.00
194, 187500.00, 187500.00, 187500.00, 35412.20, -121652.00, -135914.63, -187500.02, -187500.02, 0.00, 0.00, 0.00
195, 187500.00, 187500.00, 187500.00, 35431.49, -121667.05, -135885.44, -187500.02, -187500.02, -144.00, -272.00, 8624.00
196, 187500.00, 187500.00, 187500.00, 35419.67, -121743.51, -135960.30, -187500.02, -187500.02, 0.00, 0.00, 0.00
197, 187500.00, 187500.00, 187500.00, 35393.65, -121862.20, -136072.59, -187500.02, -187500.02, 0.00, 0.00, 0.00
198, 187500.00, 187500.00, 187500.00, 35398.50, -121913.27, -136078.89, -187500.02, -187500.02, 0.00, 0.00, 0.00
199, 187500.00, 187500.00, 187500.00, 35422.02, -121898.68, -136022.44, -187500.02, -187500.02, 0.00, 0.00, 0.00
200, 187500.00, 187500.00, 187500.00, 35415.46, -121946.66, -136066.00, -187500.02, -187500.02, 0.00, 0.00, 0.00
201, 187500.00, 187500.00, 187500.00, 35383.28, -122046.31, -136166.94, -187500.02, -187500.02, 0.00, 0.00, 0.00
202, 187500.00, 187500.00, 187500.00, 35379.48, -122098.05, -136184.30, -187500.02, -187500.02, 0.00, 0.00, 0.00
203, 187500.00, 187500.00, 187500.00, 35409.72, -122102.77, -136145.83, -187500.02, -187500.02, 0.00, 0.00, 0.00
204, 187500.00, 187500.00, 187500.00, 35403.22, -122146.18, -136165.13, -187500.02, -187500.02, 0.00, 0.00, 0.00
205, 187500.00, 187500.00, 187500.00, 35376.55, -122238.31, -136264.34, -187500.02, -187500.02, -144.00, -208.00, 8624.00
206, 187500.00, 187500.00, 187500.00, 35368.41, -122333.09, -136320.20, -187500.02, -187500.02, 0.00, 0.00, 0.00
207, 187500.00, 187500.00, 187500.00, 35390.93, -122328.73, -136274.58, -187500.02, -187500.02, 0.00, 0.00, 0.00
208, 187500.00, 187500.00, 187500.00, 35401.45, -122369.43, -136287.72, -187500.02, -187500.02, 0.00, 0.00, 0.00
209, 187500.00, 187500.00, 187500.00, 35378.81, -122475.53, -136387.20, -187500.02, -187500.02, 0.00, 0.00, 0.00
210, 187500.00, 187500.00, 187500.00, 35368.01, -122596.81, -136464.86, -187500.02, -187500.02, 0.00, 0.00, 0.00
211, 187500.00, 187500.00, 187500.00, 35396.42, -122634.32, -136427.52, -187500.02, -187500.02, 0.00, 0.00, 0.00
212, 187500.00, 187500.00, 187500.00, 35412.14, -122641.18, -136412.31, -187500.02, -187500.02, 0.00, 0.00, 0.00
213, 187500.00, 187500.00, 187500.00, 35392.20, -122750.61, -136507.83, -187500.02, -187500.02, 0.00, 0.00, 0.00
214, 187500.00, 187500.00, 187500.00, 35371.10, -122876.23, -136576.06, -187500.02, -187500.02, 0.00, 0.00, 0.00
215, 187500.00, 187500.00, 187500.00, 35383.50, -122903.86, -136548.52, -187500.02, -187500.02, -160.00, -240.00, 8704.00
216, 187500.00, 187500.00, 187500.00, 35400.25, -122891.43, -136513.08, -187500.02, -187500.02, 0.00, 0.00, 0.00
217, 187500.00, 187500.00, 187500.00, 35387.55, -122959.83, -136583.14, -187500.02, -187500.02, 0.00, 0.00, 0.00
218, 187500.00, 187500.00, 187500.00, 35366.65, -123087.21, -136690.09, -187500.02, -187500.02, 0.00, 0.00, 0.00
219, 187500.00, 187500.00, 187500.00, 35376.33, -123121.27, -136685.50, -187500.02, -187500.02, 0.00, 0.00, 0.00
220, 187500.00, 187500.00, 187500.00, 35400.71, -123122.77, -136650.05, -187500.02, -187500.02, 0.00, 0.00, 0.00
221, 187500.00, 187500.00, 187500.00, 35395.35, -123188.82, -136717.48, -187500.02, -187500.02, 0.00, 0.00, 0.00
222, 187500.00, 187500.00, 187500.00, 35372.21, -123308.52, -136837.48, -187500.02, -187500.02, 0.00, 0.00, 0.00
223, 187500.00, 187500.00, 187500.00, 35374.18, -123367.61, -136849.95, -187500.02, -187500.02, 0.00, 0.00, 0.00
224, 187500.00, 187500.00, 187500.00, 35397.54, -123364.05, -136794.55, -187500.02, -187500.02, 0.00, 0.00, 0.00
225, 187500.00, 187500.00, 187500.00, 35393.14, -123424.07, -136825.55, -187500.02, -187500.02, -160.00, -272.00, 8704.00
226, 187500.00, 187500.00, 187500.00, 35364.84, -123539.27, -136930.78, -187500.02, -187500.02, 0.00, 0.00, 0.00
227, 187500.00, 187500.00, 187500.00, 35362.31, -123611.83, -136964.48, -187500.02, -187500.02, 0.00, 0.00, 0.00
228, 187500.00, 187500.00, 187500.00, 35389.34, -123625.48, -136913.81, -187500.02, -187500.02, 0.00, 0.00, 0.00
229, 187500.00, 187500.00, 187500.00, 35391.33, -123651.05, -136922.02, -187500.02, -187500.02, 0.00, 0.00, 0.00
230, 187500.00, 187500.00, 187500.00, 35367.14, -123743.70, -137013.11, -187500.02, -187500.02, 0.00, 0.00, 0.00
231, 187500.00, 187500.00, 187500.00, 35360.97, -123837.20, -137068.52, -187500.02, -187500.02, 0.00, 0.00, 0.00
232, 187500.00, 187500.00, 187500.00, 35393.45, -123840.64, -137037.33, -187500.02, -187500.02, 0.00, 0.00, 0.00
233, 187500.00, 187500.00, 187500.00, 35409.77, -123865.52, -137031.91, -187500.02, -187500.02, 0.00, 0.00, 0.00
234, 187500.00, 187500.00, 187500.00, 35390.81, -123992.34, -137138.88, -187500.02, -187500.02, 0.00, 0.00, 0.00
235, 187500.00, 187500.00, 187500.00, 35372.82, -124092.01, -137220.53, -187500.02, -187500.02, -144.00, -288.00, 8656.00
236, 187500.00, 187500.00, 187500.00, 35394.32, -124117.80, -137190.91, -187500.02, -187500.02, 0.00, 0.00, 0.00
237, 187500.00, 187500.00, 187500.00, 35413.30, -124142.81, -137173.91, -187500.02, -187500.02, 0.00, 0.00, 0.00
238, 187500.00, 187500.00, 187500.00, 35394.41, -124229.36, -137243.06, -187500.02, -187500.02, 0.00, 0.00, 0.00
239, 187500.00, 187500.00, 187500.00, 35375.86, -124352.14, -137351.58, -187500.02, -187500.02, 0.00, 0.00, 0.00
240, 187500.00, 187500.00, 187500.00, 35387.86, -124374.20, -137357.52, -187500.02, -187500.02, 0.00, 0.00, 0.00
241, 187500.00, 187500.00, 187500.00, 35413.36, -124387.77, -137345.52, -187500.02, -187500.02, 0.00, 0.00, 0.00
242, 187500.00, 187500.00, 187500.00, 35400.65, -124483.30, -137425.94, -187500.02, -187500.02, 0.00, 0.00, 0.00
243, 187500.00, 187500.00, 187500.00, 35375.79, -124590.09, -137511.30, -187500.02, -187500.02, 0.00, 0.00, 0.00
244, 187500.00, 187500.00, 187500.00, 35385.02, -124634.24, -137488.91, -187500.02, -187500.02, 0.00, 0.00, 0.00
245, 187500.00, 187500.00, 187500.00, 35408.83, -124635.49, -137435.27, -187500.02, -187500.02, -128.00, -240.00, 8720.00
246, 187500.00, 187500.00, 187500.00, 35399.42, -124685.83, -137465.33, -187500.02, -187500.02, 0.00, 0.00, 0.00
247, 187500.00, 187500.00, 187500.00, 35372.95, -124794.73, -137553.88, -187500.02, -187500.02, 0.00, 0.00, 0.00
248, 187500.00, 187500.00, 187500.00, 35377.58, -124851.99, -137564.88, -187500.02, -187500.02, 0.00, 0.00, 0.00
249, 187500.00, 187500.00, 187500.00, 35405.90, -124874.25, -137531.48, -187500.02, -187500.02, 0.00, 0.00, 0.00
250, 187500.00, 187500.00, 187500.00, 35399.44, -124901.97, -137554.95, -187500.02, -187500.02, 0.00, 0.00, 0.00
251, 187500.00, 187500.00, 187500.00, 35371.55, -125007.45, -137659.34, -187500.02, -187500.02, 0.00, 0.00, 0.00
252, 187500.00, 187500.00, 187500.00, 35368.44, -125104.25, -137721.45, -187500.02, -187500.02, 0.00, 0.00, 0.00
253, 187500.00, 187500.00, 187500.00, 35393.94, -125099.00, -137665.81, -187500.02, -187500.02, 0.00, 0.00, 0.00
254, 187500.00, 187500.00, 187500.00, 35404.58, -125111.45, -137665.63, -187500.02, -187500.02, 0.00, 0.00, 0.00
255, 187500.00, 187500.00, 187500.00, 35376.51, -125209.87, -137761.91, -187500.02, -187500.02, -176.00, -208.00, 8688.00
0, 187500.00, 187500.00, 187500.00, 35366.67, -125311.45, -137823.91, -187500.02, -187500.02, 0.00, 0.00, 0.00
1, 187500.00, 187500.00, 187500.00, 35390.28, -125326.59, -137792.47, -187500.02, -187500.02, 0.00, 0.00, 0.00
2, 187500.00, 187500.00, 187500.00, 35402.12, -125320.04, -137759.20, -187500.02, -187500.02, 0.00, 0.00, 0.00
3, 187500.00, 187500.00, 187500.00, 35381.65, -125434.81, -137840.72, -187500.02, -187500.02, 0.00, 0.00, 0.00
4, 187500.00, 187500.00, 187500.00, 35359.86, -125505.29, -137903.28, -187500.02, -187500.02, 0.00, 0.00, 0.00
5, 187500.00, 187500.00, 187500.00, 35381.96, -125534.91, -137887.19, -187500.02, -187500.02, 0.00, 0.00, 0.00
6, 187500.00, 187500.00, 187500.00, 35401.30, -125558.55, -137877.83, -187500.02, -187500.02, 0.00, 0.00, 0.00
7, 187500.00, 187500.00, 187500.00, 35384.73, -125642.37, -137968.63, -187500.02, -187500.02, 0.00, 0.00, 0.00
8, 187500.00, 187500.00, 187500.00, 35364.13, -125770.89, -138084.58, -187500.02, -187500.02, 0.00, 0.00, 0.00
9, 187500.00, 187500.00, 187500.00, 35374.65, -125806.39, -138065.30, -187500.02, -187500.02, -176.00, -224.00, 8672.00
10, 187500.00, 187500.00, 187500.00, 35397.43, -125802.09, -138001.78, -187500.02, -187500.02, 0.00, 0.00, 0.00
11, 187500.00, 187500.00, 187500.00, 35389.63, -125878.18, -138062.31, -187500.02, -187500.02, 0.00, 0.00, 0.00
12, 187500.00, 187500.00, 187500.00, 35364.91, -125984.30, -138179.00, -187500.02, -187500.02, 0.00, 0.00, 0.00
13, 187500.00, 187500.00, 187500.00, 35376.35, -126051.23, -138211.84, -187500.02, -187500.02, 0.00, 0.00, 0.00
14, 187500.00, 187500.00, 187500.00, 35403.26, -126058.23, -138166.20, -187500.02, -187500.02, 0.00, 0.00, 0.00
15, 187500.00, 187500.00, 187500.00, 35402.61, -126129.91, -138209.33, -187500.02, -187500.02, 0.00, 0.00, 0.00
16, 187500.00, 187500.00, 187500.00, 35378.45, -126271.70, -138339.23, -187500.02, -187500.02, 0.00, 0.00, 0.00
17, 187500.00, 187500.00, 187500.00, 35376.46, -126353.78, -138370.41, -187500.02, -187500.02, 0.00, 0.00, 0.00
18, 187500.00, 187500.00, 187500.00, 35396.71, -126349.04, -138318.72, -187500.02, -187500.02, 0.00, 0.00, 0.00
19, 187500.00, 187500.00, 187500.00, 35396.09, -126382.37, -138353.92, -187500.02, -187500.02, -208.00, -256.00, 8720.00
20, 187500.00, 187500.00, 187500.00, 35370.27, -126481.30, -138467.13, -187500.02, -187500.02, 0.00, 0.00, 0.00
21, 187500.00, 187500.00, 187500.00, 35373.69, -126556.40, -138529.31, -187500.02, -187500.02, 0.00, 0.00, 0.00
22, 187500.00, 187500.00, 187500.00, 35398.97, -126581.37, -138495.73, -187500.02, -187500.02, 0.00, 0.00, 0.00
23, 187500.00, 187500.00, 187500.00, 35405.00, -126613.84, -138487.48, -187500.02, -187500.02, 0.00, 0.00, 0.00
24, 187500.00, 187500.00, 187500.00, 35378.21, -126718.05, -138580.39, -187500.02, -187500.02, 0.00, 0.00, 0.00
25, 187500.00, 187500.00, 187500.00, 35362.65, -126805.98, -138640.58, -187500.02, -187500.02, 0.00, 0.00, 0.00
26, 187500.00, 187500.00, 187500.00, 35383.50, -126844.24, -138600.56, -187500.02, -187500.02, 0.00, 0.00, 0.00
27, 187500.00, 187500.00, 187500.00, 35391.37, -126864.88, -138563.64, -187500.02, -187500.02, 0.00, 0.00, 0.00
28, 187500.00, 187500.00, 187500.00, 35366.56, -126948.18, -138636.16, -187500.02, -187500.02, 0.00, 0.00, 0.00
29, 187500.00, 187500.00, 187500.00, 35344.59, -127048.45, -138731.22, -187500.02, -187500.02, -192.00, -320.00, 8720.00
30, 187500.00, 187500.00, 187500.00, 35363.41, -127085.51, -138721.94, -187500.02, -187500.02, 0.00, 0.00, 0.00
31, 187500.00, 187500.00, 187500.00, 35384.44, -127089.29, -138701.00, -187500.02, -187500.02, 0.00, 0.00, 0.00
32, 187500.00, 187500.00, 187500.00, 35371.50, -127173.89, -138765.13, -187500.02, -187500.02, 0.00, 0.00, 0.00
33, 187500.00, 187500.00, 187500.00, 35346.96, -127259.01, -138841.41, -187500.02, -187500.02, 0.00, 0.00, 0.00
34, 187500.00, 187500.00, 187500.00, 35365.58, -127313.68, -138850.95, -187500.02, -187500.02, 0.00, 0.00, 0.00
35, 187500.00, 187500.00, 187500.00, 35391.06, -127333.10, -138825.45, -187500.02, -187500.02, 0.00, 0.00, 0.00
36, 187500.00, 187500.00, 187500.00, 35386.92, -127418.80, -138881.00, -187500.02, -187500.02, 0.00, 0.00, 0.00
