%OpenBCI Raw EEG Data
%
%Sample Rate = 250.0 Hz
%First Column = SampleIndex
%Other Columns = EEG data in microvolts with optional columns at end being unscaled Aux data
0, 187500.00, 187500.00, 187500.00, 37400.64, -187500.02, -187500.02, -187500.02, -187500.02, -176.00, -272.00, 8672.00
1, 187500.00, 187500.00, 187500.00, 37446.57, -187500.02, -187500.02, -187500.02, -187500.02, 0.00, 0.00, 0.00
2, 187500.00, 187500.00, 187500.00, 37409.80, -187500.02, -187500.02, -187500.02, -187500.02, 0.00, 0.00, 0.00
3, 187500.00, 187500.00, 187500.00, 37358.79, -187500.02, -187500.02, -187500.02, -187500.02, 0.00, 0.00, 0.00
4, 187500.00, 187500.00, 187500.00, 37404.59, -187500.02, -187500.02, -187500.02, -187500.02, 0.00, 0.00, 0.00
5, 187500.00, 187500.00, 187500.00, 37458.06, -187500.02, -187500.02, -187500.02, -187500.02, 0.00, 0.00, 0.00
6, 187500.00, 187500.00, 187500.00, 37426.79, -187500.02, -187500.02, -187500.02, -187500.02, 0.00, 0.00, 0.00
7, 187500.00, 187500.00, 187500.00, 37378.39, -187500.02, -187500.02, -187500.02, -187500.02, -160.00, -224.00, 8672.00
8, 187500.00, 187500.00, 187500.00, 37405.82, -187500.02, -187500.02, -187500.02, -187500.02, 0.00, 0.00, 0.00
9, 187500.00, 187500.00, 187500.00, 37456.40, -187500.02, -187500.02, -187500.02, -187500.02, 0.00, 0.00, 0.00
10, 187500.00, 187500.00, 187500.00, 37444.13, -187500.02, -187500.02, -187500.02, -187500.02, 0.00, 0.00, 0.00
11, 187500.00, 187500.00, 187500.00, 37384.59, -187500.02, -187500.02, -187500.02, -187500.02, 0.00, 0.00, 0.00
12, 187500.00, 187500.00, 187500.00, 37387.61, -187500.02, -187500.02, -187500.02, -187500.02, 0.00, 0.00, 0.00
13, 187500.00, 187500.00, 187500.00, 37459.98, -187500.02, -187500.02, -187500.02, -187500.02, 0.00, 0.00, 0.00
14, 187500.00, 187500.00, 187500.00, 37469.32, -187500.02, -187500.02, -187500.02, -187500.02, 0.00, 0.00, 0.00
15, 187500.00, 187500.00, 187500.00, 37399.41, -187500.02, -187500.02, -187500.02, -187500.02, 0.00, 0.00, 0.00
16, 187500.00, 187500.00, 187500.00, 37381.97, -187500.02, -187500.02, -187500.02, -187500.02, 0.00, 0.00, 0.00
17, 187500.00, 187500.00, 187500.00, 37452.61, -187500.02, -187500.02, -187500.02, -187500.02, -144.00, -256.00, 8688.00
18, 187500.00, 187500.00, 187500.00, 37469.99, -187500.02, -187500.02, -187500.02, -187500.02, 0.00, 0.00, 0.00
19, 187500.00, 187500.00, 187500.00, 37406.85, -187500.02, -187500.02, -187500.02, -187500.02, 0.00, 0.00, 0.00
20, 187500.00, 187500.00, 187500.00, 37378.66, -187500.02, -187500.02, -187500.02, -187500.02, 0.00, 0.00, 0.00
21, 187500.00, 187500.00, 187500.00, 37446.12, -187500.02, -187500.02, -187500.02, -187500.02, 0.00, 0.00, 0.00
22, 187500.00, 187500.00, 187500.00, 37486.36, -187500.02, -187500.02, -187500.02, -187500.02, 0.00, 0.00, 0.00
23, 187500.00, 187500.00, 187500.00, 37439.59, -187500.02, -187500.02, -187500.02, -187500.02, 0.00, 0.00, 0.00
24, 187500.00, 187500.00, 187500.00, 37397.51, -187500.02, -187500.02, -187500.02, -187500.02, 0.00, 0.00, 0.00
25, 187500.00, 187500.00, 187500.00, 37443.51, -187500.02, -187500.02, -187500.02, -187500.02, 0.00, 0.00, 0.00
26, 187500.00, 187500.00, 187500.00, 37485.15, -187500.02, -187500.02, -187500.02, -187500.02, 0.00, 0.00, 0.00
27, 187500.00, 187500.00, 187500.00, 37442.25, -187500.02, -187500.02, -187500.02, -187500.02, -144.00, -224.00, 8688.00
28, 187500.00, 187500.00, 187500.00, 37383.94, -187500.02, -187500.02, -187500.02, -187500.02, 0.00, 0.00, 0.00
29, 187500.00, 187500.00, 187500.00, 37405.15, -187500.02, -187500.02, -187500.02, -187500.02, 0.00, 0.00, 0.00
30, 187500.00, 187500.00, 187500.00, 37491.23, -187500.02, -187500.02, -187500.02, -187500.02, 0.00, 0.00, 0.00
31, 187500.00, 187500.00, 187500.00, 37475.22, -187500.02, -187500.02, -187500.02, -187500.02, 0.00, 0.00, 0.00
32, 187500.00, 187500.00, 187500.00, 37397.26, -187500.02, -187500.02, -187500.02, -187500.02, 0.00, 0.00, 0.00
33, 187500.00, 187500.00, 187500.00, 37401.80, -187500.02, -187500.02, -187500.02, -187500.02, 0.00, 0.00, 0.00
34, 187500.00, 187500.00, 187500.00, 37470.04, -187500.02, -187500.02, -187500.02, -187500.02, 0.00, 0.00, 0.00
35, 187500.00, 187500.00, 187500.00, 37453.63, -187500.02, -187500.02, -187500.02, -187500.02, 0.00, 0.00, 0.00
36, 187500.00, 187500.00, 187500.00, 37376.38, -187500.02, -187500.02, -187500.02, -187500.02, 0.00, 0.00, 0.00
37, 187500.00, 187500.00, 187500.00, 37390.22, -187500.02, -187500.02, -187500.02, -187500.02, -144.00, -224.00, 8720.00
38, 187500.00, 187500.00, 187500.00, 37461.05, -187500.02, -187500.02, -187500.02, -187500.02, 0.00, 0.00, 0.00
39, 187500.00, 187500.00, 187500.00, 37453.57, -187500.02, -187500.02, -187500.02, -187500.02, 0.00, 0.00, 0.00
40, 187500.00, 187500.00, 187500.00, 37385.35, -187500.02, -187500.02, -187500.02, -187500.02, 0.00, 0.00, 0.00
41, 187500.00, 187500.00, 187500.00, 37373.23, -187500.02, -187500.02, -187500.02, -187500.02, 0.00, 0.00, 0.00
42, 187500.00, 187500.00, 187500.00, 37429.31, -187500.02, -187500.02, -187500.02, -187500.02, 0.00, 0.00, 0.00
43, 187500.00, 187500.00, 187500.00, 37450.86, -187500.02, -187500.02, -187500.02, -187500.02, 0.00, 0.00, 0.00
44, 187500.00, 187500.00, 187500.00, 37377.34, -187500.02, -187500.02, -187500.02, -187500.02, 0.00, 0.00, 0.00
45, 187500.00, 187500.00, 187500.00, 37332.44, -187500.02, -187500.02, -187500.02, -187500.02, 0.00, 0.00, 0.00
46, 187500.00, 187500.00, 187500.00, 37388.84, -187500.02, -187500.02, -187500.02, -187500.02, 0.00, 0.00, 0.00
47, 187500.00, 187500.00, 187500.00, 37407.99, -187500.02, -187500.02, -187500.02, -187500.02, -128.00, -208.00, 8720.00
48, 187500.00, 187500.00, 187500.00, 37380.86, -187500.02, -187500.02, -187500.02, -187500.02, 0.00, 0.00, 0.00
49, 187500.00, 187500.00, 187500.00, 37336.40, -187500.02, -187500.02, -187500.02, -187500.02, 0.00, 0.00, 0.00
50, 187500.00, 187500.00, 187500.00, 37395.20, -187500.02, -187500.02, -187500.02, -187500.02, 0.00, 0.00, 0.00
51, 187500.00, 187500.00, 187500.00, 37454.37, -187500.02, -187500.02, -187500.02, -187500.02, 0.00, 0.00, 0.00
52, 187500.00, 187500.00, 187500.00, 37420.35, -187500.02, -187500.02, -187500.02, -187500.02, 0.00, 0.00, 0.00
53, 187500.00, 187500.00, 187500.00, 37351.62, -187500.02, -187500.02, -187500.02, -187500.02, 0.00, 0.00, 0.00
54, 187500.00, 187500.00, 187500.00, 37380.54, -187500.02, -187500.02, -187500.02, -187500.02, 0.00, 0.00, 0.00
55, 187500.00, 187500.00, 187500.00, 37446.79, -187500.02, -187500.02, -187500.02, -187500.02, 0.00, 0.00, 0.00
56, 187500.00, 187500.00, 187500.00, 37416.28, -187500.02, -187500.02, -187500.02, -187500.02, 0.00, 0.00, 0.00
57, 187500.00, 187500.00, 187500.00, 37354.19, -187500.02, -187500.02, -187500.02, -187500.02, -144.00, -160.00, 8688.00
58, 187500.00, 187500.00, 187500.00, 37360.36, -187500.02, -187500.02, -187500.02, -187500.02, 0.00, 0.00, 0.00
59, 187500.00, 187500.00, 187500.00, 37429.25, -187500.02, -187500.02, -187500.02, -187500.02, 0.00, 0.00, 0.00
60, 187500.00, 187500.00, 187500.00, 37420.15, -187500.02, -187500.02, -187500.02, -187500.02, 0.00, 0.00, 0.00
61, 187500.00, 187500.00, 187500.00, 37337.34, -187500.02, -187500.02, -187500.02, -187500.02, 0.00, 0.00, 0.00
62, 187500.00, 187500.00, 187500.00, 37309.71, -187500.02, -187500.02, -187500.02, -187500.02, 0.00, 0.00, 0.00
63, 187500.00, 187500.00, 187500.00, 37355.42, -187500.02, -187500.02, -187500.02, -187500.02, 0.00, 0.00, 0.00
64, 187500.00, 187500.00, 187500.00, 37400.43, -187500.02, -187500.02, -187500.02, -187500.02, 0.00, 0.00, 0.00
65, 187500.00, 187500.00, 187500.00, 37357.27, -187500.02, -187500.02, -187500.02, -187500.02, 0.00, 0.00, 0.00
66, 187500.00, 187500.00, 187500.00, 37347.37, -187500.02, -187500.02, -187500.02, -187500.02, 0.00, 0.00, 0.00
67, 187500.00, 187500.00, 187500.00, 37405.60, -187500.02, -187500.02, -187500.02, -187500.02, -128.00, -208.00, 8704.00
68, 187500.00, 187500.00, 187500.00, 37425.40, -187500.02, -187500.02, -187500.02, -187500.02, 0.00, 0.00, 0.00
69, 187500.00, 187500.00, 187500.00, 37363.04, -187500.02, -187500.02, -187500.02, -187500.02, 0.00, 0.00, 0.00
70, 187500.00, 187500.00, 187500.00, 37326.94, -187500.02, -187500.02, -187500.02, -187500.02, 0.00, 0.00, 0.00
71, 187500.00, 187500.00, 187500.00, 37370.51, -187500.02, -187500.02, -187500.02, -187500.02, 0.00, 0.00, 0.00
72, 187500.00, 187500.00, 187500.00, 37408.13, -187500.02, -187500.02, -187500.02, -187500.02, 0.00, 0.00, 0.00
73, 187500.00, 187500.00, 187500.00, 37346.39, -187500.02, -187500.02, -187500.02, -187500.02, 0.00, 0.00, 0.00
74, 187500.00, 187500.00, 187500.00, 37292.50, -187500.02, -187500.02, -187500.02, -187500.02, 0.00, 0.00, 0.00
75, 187500.00, 187500.00, 187500.00, 37334.74, -187500.02, -187500.02, -187500.02, -187500.02, 0.00, 0.00, 0.00
76, 187500.00, 187500.00, 187500.00, 37410.40, -187500.02, -187500.02, -187500.02, -187500.02, 0.00, 0.00, 0.00
77, 187500.00, 187500.00, 187500.00, 37367.15, -187500.02, -187500.02, -187500.02, -187500.02, -144.00, -224.00, 8672.00
78, 187500.00, 187500.00, 187500.00, 37293.59, -187500.02, -187500.02, -187500.02, -187500.02, 0.00, 0.00, 0.00
79, 187500.00, 187500.00, 187500.00, 37303.81, -187500.02, -187500.02, -187500.02, -187500.02, 0.00, 0.00, 0.00
80, 187500.00, 187500.00, 187500.00, 37367.82, -187500.02, -187500.02, -187500.02, -187500.02, 0.00, 0.00, 0.00
81, 187500.00, 187500.00, 187500.00, 37364.76, -187500.02, -187500.02, -187500.02, -187500.02, 0.00, 0.00, 0.00
82, 187500.00, 187500.00, 187500.00, 37320.95, -187500.02, -187500.02, -187500.02, -187500.02, 0.00, 0.00, 0.00
83, 187500.00, 187500.00, 187500.00, 37310.29, -187500.02, -187500.02, -187500.02, -187500.02, 0.00, 0.00, 0.00
84, 187500.00, 187500.00, 187500.00, 37351.48, -187500.02, -187500.02, -187500.02, -187500.02, 0.00, 0.00, 0.00
85, 187500.00, 187500.00, 187500.00, 37370.77, -187500.02, -187500.02, -187500.02, -187500.02, 0.00, 0.00, 0.00
86, 187500.00, 187500.00, 187500.00, 37298.54, -187500.02, -187500.02, -187500.02, -187500.02, 0.00, 0.00, 0.00
87, 187500.00, 187500.00, 187500.00, 37280.38, -187500.02, -187500.02, -187500.02, -187500.02, -144.00, -208.00, 8656.00
88, 187500.00, 187500.00, 187500.00, 37371.38, -187500.02, -187500.02, -187500.02, -187500.02, 0.00, 0.00, 0.00
89, 187500.00, 187500.00, 187500.00, 37401.73, -187500.02, -187500.02, -187500.02, -187500.02, 0.00, 0.00, 0.00
90, 187500.00, 187500.00, 187500.00, 37332.69, -187500.02, -187500.02, -187500.02, -187500.02, 0.00, 0.00, 0.00
91, 187500.00, 187500.00, 187500.00, 37306.45, -187500.02, -187500.02, -187500.02, -187500.02, 0.00, 0.00, 0.00
92, 187500.00, 187500.00, 187500.00, 37362.59, -187500.02, -187500.02, -187500.02, -187500.02, 0.00, 0.00, 0.00
93, 187500.00, 187500.00, 187500.00, 37396.93, -187500.02, -187500.02, -187500.02, -187500.02, 0.00, 0.00, 0.00
94, 187500.00, 187500.00, 187500.00, 37336.89, -187500.02, -187500.02, -187500.02, -187500.02, 0.00, 0.00, 0.00
95, 187500.00, 187500.00, 187500.00, 37309.26, -187500.02, -187500.02, -187500.02, -187500.02, 0.00, 0.00, 0.00
96, 187500.00, 187500.00, 187500.00, 37355.87, -187500.02, -187500.02, -187500.02, -187500.02, 0.00, 0.00, 0.00
97, 187500.00, 187500.00, 187500.00, 37409.91, -187500.02, -187500.02, -187500.02, -187500.02, -144.00, -240.00, 8704.00
98, 187500.00, 187500.00, 187500.00, 37368.09, -187500.02, -187500.02, -187500.02, -187500.02, 0.00, 0.00, 0.00
99, 187500.00, 187500.00, 187500.00, 37312.28, -187500.02, -187500.02, -187500.02, -187500.02, 0.00, 0.00, 0.00
100, 187500.00, 187500.00, 187500.00, 37335.97, -187500.02, -187500.02, -187500.02, -187500.02, 0.00, 0.00, 0.00
101, 187500.00, 187500.00, 187500.00, 37400.41, -187500.02, -187500.02, -187500.02, -187500.02, 0.00, 0.00, 0.00
102, 187500.00, 187500.00, 187500.00, 37401.13, -187500.02, -187500.02, -187500.02, -187500.02, 0.00, 0.00, 0.00
103, 187500.00, 187500.00, 187500.00, 37368.96, -187500.02, -187500.02, -187500.02, -187500.02, 0.00, 0.00, 0.00
104, 187500.00, 187500.00, 187500.00, 37378.51, -187500.02, -187500.02, -187500.02, -187500.02, 0.00, 0.00, 0.00
105, 187500.00, 187500.00, 187500.00, 37433.71, -187500.02, -187500.02, -187500.02, -187500.02, 0.00, 0.00, 0.00
106, 187500.00, 187500.00, 187500.00, 37429.07, -187500.02, -187500.02, -187500.02, -187500.02, 0.00, 0.00, 0.00
107, 187500.00, 187500.00, 187500.00, 37389.28, -187500.02, -187500.02, -187500.02, -187500.02, -176.00, -288.00, 8704.00
108, 187500.00, 187500.00, 187500.00, 37400.21, -187500.02, -187500.02, -187500.02, -187500.02, 0.00, 0.00, 0.00
109, 187500.00, 187500.00, 187500.00, 37446.68, -187500.02, -187500.02, -187500.02, -187500.02, 0.00, 0.00, 0.00
110, 187500.00, 187500.00, 187500.00, 37419.41, -187500.02, -187500.02, -187500.02, -187500.02, 0.00, 0.00, 0.00
111, 187500.00, 187500.00, 187500.00, 37359.00, -187500.02, -187500.02, -187500.02, -187500.02, 0.00, 0.00, 0.00
112, 187500.00, 187500.00, 187500.00, 37383.96, -187500.02, -187500.02, -187500.02, -187500.02, 0.00, 0.00, 0.00
113, 187500.00, 187500.00, 187500.00, 37437.00, -187500.02, -187500.02, -187500.02, -187500.02, 0.00, 0.00, 0.00
114, 187500.00, 187500.00, 187500.00, 37425.52, -187500.02, -187500.02, -187500.02, -187500.02, 0.00, 0.00, 0.00
115, 187500.00, 187500.00, 187500.00, 37386.89, -187500.02, -187500.02, -187500.02, -187500.02, 0.00, 0.00, 0.00
116, 187500.00, 187500.00, 187500.00, 37358.77, -187500.02, -187500.02, -187500.02, -187500.02, 0.00, 0.00, 0.00
117, 187500.00, 187500.00, 187500.00, 37408.23, -187500.02, -187500.02, -187500.02, -187500.02, -160.00, -288.00, 8656.00
118, 187500.00, 187500.00, 187500.00, 37474.98, -187500.02, -187500.02, -187500.02, -187500.02, 0.00, 0.00, 0.00
119, 187500.00, 187500.00, 187500.00, 37434.99, -187500.02, -187500.02, -187500.02, -187500.02, 0.00, 0.00, 0.00
120, 187500.00, 187500.00, 187500.00, 37394.20, -187500.02, -187500.02, -187500.02, -187500.02, 0.00, 0.00, 0.00
121, 187500.00, 187500.00, 187500.00, 37413.15, -187500.02, -187500.02, -187500.02, -187500.02, 0.00, 0.00, 0.00
122, 187500.00, 187500.00, 187500.00, 37459.15, -187500.02, -187500.02, -187500.02, -187500.02, 0.00, 0.00, 0.00
123, 187500.00, 187500.00, 187500.00, 37432.38, -187500.02, -187500.02, -187500.02, -187500.02, 0.00, 0.00, 0.00
124, 187500.00, 187500.00, 187500.00, 37384.32, -187500.02, -187500.02, -187500.02, -187500.02, 0.00, 0.00, 0.00
125, 187500.00, 187500.00, 187500.00, 37421.04, -187500.02, -187500.02, -187500.02, -187500.02, 0.00, 0.00, 0.00
126, 187500.00, 187500.00, 187500.00, 37469.41, -187500.02, -187500.02, -187500.02, -187500.02, 0.00, 0.00, 0.00
127, 187500.00, 187500.00, 187500.00, 37445.52, -187500.02, -187500.02, -187500.02, -187500.02, -176.00, -256.00, 8672.00
128, 187500.00, 187500.00, 187500.00, 37383.76, -187500.02, -187500.02, -187500.02, -187500.02, 0.00, 0.00, 0.00
129, 187500.00, 187500.00, 187500.00, 37400.37, -187500.02, -187500.02, -187500.02, -187500.02, 0.00, 0.00, 0.00
130, 187500.00, 187500.00, 187500.00, 37452.54, -187500.02, -187500.02, -187500.02, -187500.02, 0.00, 0.00, 0.00
131, 187500.00, 187500.00, 187500.00, 37446.57, -187500.02, -187500.02, -187500.02, -187500.02, 0.00, 0.00, 0.00
132, 187500.00, 187500.00, 187500.00, 37377.68, -187500.02, -187500.02, -187500.02, -187500.02, 0.00, 0.00, 0.00
133, 187500.00, 187500.00, 187500.00, 37377.26, -187500.02, -187500.02, -187500.02, -187500.02, 0.00, 0.00, 0.00
134, 187500.00, 187500.00, 187500.00, 37444.78, -187500.02, -187500.02, -187500.02, -187500.02, 0.00, 0.00, 0.00
135, 187500.00, 187500.00, 187500.00, 37456.79, -187500.02, -187500.02, -187500.02, -187500.02, 0.00, 0.00, 0.00
136, 187500.00, 187500.00, 187500.00, 37399.74, -187500.02, -187500.02, -187500.02, -187500.02, 0.00, 0.00, 0.00
137, 187500.00, 187500.00, 187500.00, 37378.51, -187500.02, -187500.02, -187500.02, -187500.02, -192.00, -272.00, 8688.00
138, 187500.00, 187500.00, 187500.00, 37446.79, -187500.02, -187500.02, -187500.02, -187500.02, 0.00, 0.00, 0.00
139, 187500.00, 187500.00, 187500.00, 37462.15, -187500.02, -187500.02, -187500.02, -187500.02, 0.00, 0.00, 0.00
140, 187500.00, 187500.00, 187500.00, 37396.34, -187500.02, -187500.02, -187500.02, -187500.02, 0.00, 0.00, 0.00
141, 187500.00, 187500.00, 187500.00, 37378.35, -187500.02, -187500.02, -187500.02, -187500.02, 0.00, 0.00, 0.00
142, 187500.00, 187500.00, 187500.00, 37439.15, -187500.02, -187500.02, -187500.02, -187500.02, 0.00, 0.00, 0.00
143, 187500.00, 187500.00, 187500.00, 37472.65, -187500.02, -187500.02, -187500.02, -187500.02, 0.00, 0.00, 0.00
144, 187500.00, 187500.00, 187500.00, 37415.52, -187500.02, -187500.02, -187500.02, -187500.02, 0.00, 0.00, 0.00
145, 187500.00, 187500.00, 187500.00, 37367.18, -187500.02, -187500.02, -187500.02, -187500.02, 0.00, 0.00, 0.00
146, 187500.00, 187500.00, 187500.00, 37408.35, -187500.02, -187500.02, -187500.02, -187500.02, 0.00, 0.00, 0.00
147, 187500.00, 187500.00, 187500.00, 37460.16, -187500.02, -187500.02, -187500.02, -187500.02, 0.00, 0.00, 0.00
148, 187500.00, 187500.00, 187500.00, 37425.76, -187500.02, -187500.02, -187500.02, -187500.02, -160.00, -224.00, 8656.00
149, 187500.00, 187500.00, 187500.00, 37379.09, -187500.02, -187500.02, -187500.02, -187500.02, 0.00, 0.00, 0.00
150, 187500.00, 187500.00, 187500.00, 37419.12, -187500.02, -187500.02, -187500.02, -187500.02, 0.00, 0.00, 0.00
151, 187500.00, 187500.00, 187500.00, 37465.05, -187500.02, -187500.02, -187500.02, -187500.02, 0.00, 0.00, 0.00
152, 187500.00, 187500.00, 187500.00, 37438.16, -187500.02, -187500.02, -187500.02, -187500.02, 0.00, 0.00, 0.00
153, 187500.00, 187500.00, 187500.00, 37381.88, -187500.02, -187500.02, -187500.02, -187500.02, 0.00, 0.00, 0.00
154, 187500.00, 187500.00, 187500.00, 37393.59, -187500.02, -187500.02, -187500.02, -187500.02, 0.00, 0.00, 0.00
155, 187500.00, 187500.00, 187500.00, 37454.68, -187500.02, -187500.02, -187500.02, -187500.02, 0.00, 0.00, 0.00
156, 187500.00, 187500.00, 187500.00, 37441.23, -187500.02, -187500.02, -187500.02, -187500.02, 0.00, 0.00, 0.00
157, 187500.00, 187500.00, 187500.00, 37370.59, -187500.02, -187500.02, -187500.02, -187500.02, 0.00, 0.00, 0.00
158, 187500.00, 187500.00, 187500.00, 37396.86, -187500.02, -187500.02, -187500.02, -187500.02, -160.00, -256.00, 8688.00
159, 187500.00, 187500.00, 187500.00, 37463.36, -187500.02, -187500.02, -187500.02, -187500.02, 0.00, 0.00, 0.00
160, 187500.00, 187500.00, 187500.00, 37468.43, -187500.02, -187500.02, -187500.02, -187500.02, 0.00, 0.00, 0.00
161, 187500.00, 187500.00, 187500.00, 37403.39, -187500.02, -187500.02, -187500.02, -187500.02, 0.00, 0.00, 0.00
162, 187500.00, 187500.00, 187500.00, 37387.25, -187500.02, -187500.02, -187500.02, -187500.02, 0.00, 0.00, 0.00
163, 187500.00, 187500.00, 187500.00, 37450.68, -187500.02, -187500.02, -187500.02, -187500.02, 0.00, 0.00, 0.00
164, 187500.00, 187500.00, 187500.00, 37472.77, -187500.02, -187500.02, -187500.02, -187500.02, 0.00, 0.00, 0.00
165, 187500.00, 187500.00, 187500.00, 37409.87, -187500.02, -187500.02, -187500.02, -187500.02, 0.00, 0.00, 0.00
166, 187500.00, 187500.00, 187500.00, 37373.30, -187500.02, -187500.02, -187500.02, -187500.02, 0.00, 0.00, 0.00
167, 187500.00, 187500.00, 187500.00, 37427.73, -187500.02, -187500.02, -187500.02, -187500.02, 0.00, 0.00, 0.00
168, 187500.00, 187500.00, 187500.00, 37463.33, -187500.02, -187500.02, -187500.02, -187500.02, -160.00, -272.00, 8672.00
169, 187500.00, 187500.00, 187500.00, 37409.51, -187500.02, -187500.02, -187500.02, -187500.02, 0.00, 0.00, 0.00
170, 187500.00, 187500.00, 187500.00, 37366.84, -187500.02, -187500.02, -187500.02, -187500.02, 0.00, 0.00, 0.00
171, 187500.00, 187500.00, 187500.00, 37414.85, -187500.02, -187500.02, -187500.02, -187500.02, 0.00, 0.00, 0.00
172, 187500.00, 187500.00, 187500.00, 37475.25, -187500.02, -187500.02, -187500.02, -187500.02, 0.00, 0.00, 0.00
173, 187500.00, 187500.00, 187500.00, 37430.21, -187500.02, -187500.02, -187500.02, -187500.02, 0.00, 0.00, 0.00
174, 187500.00, 187500.00, 187500.00, 37364.89, -187500.02, -187500.02, -187500.02, -187500.02, 0.00, 0.00, 0.00
175, 187500.00, 187500.00, 187500.00, 37395.63, -187500.02, -187500.02, -187500.02, -187500.02, 0.00, 0.00, 0.00
176, 187500.00, 187500.00, 187500.00, 37452.43, -187500.02, -187500.02, -187500.02, -187500.02, 0.00, 0.00, 0.00
177, 187500.00, 187500.00, 187500.00, 37432.38, -187500.02, -187500.02, -187500.02, -187500.02, 0.00, 0.00, 0.00
178, 187500.00, 187500.00, 187500.00, 37363.42, -187500.02, -187500.02, -187500.02, -187500.02, -160.00, -272.00, 8688.00
179, 187500.00, 187500.00, 187500.00, 37353.72, -187500.02, -187500.02, -187500.02, -187500.02, 0.00, 0.00, 0.00
180, 187500.00, 187500.00, 187500.00, 37418.41, -187500.02, -187500.02, -187500.02, -187500.02, 0.00, 0.00, 0.00
181, 187500.00, 187500.00, 187500.00, 37423.95, -187500.02, -187500.02, -187500.02, -187500.02, 0.00, 0.00, 0.00
182, 187500.00, 187500.00, 187500.00, 37362.84, -187500.02, -187500.02, -187500.02, -187500.02, 0.00, 0.00, 0.00
183, 187500.00, 187500.00, 187500.00, 37355.33, -187500.02, -187500.02, -187500.02, -187500.02, 0.00, 0.00, 0.00
184, 187500.00, 187500.00, 187500.00, 37407.27, -187500.02, -187500.02, -187500.02, -187500.02, 0.00, 0.00, 0.00
185, 187500.00, 187500.00, 187500.00, 37418.63, -187500.02, -187500.02, -187500.02, -187500.02, 0.00, 0.00, 0.00
186, 187500.00, 187500.00, 187500.00, 37358.64, -187500.02, -187500.02, -187500.02, -187500.02, 0.00, 0.00, 0.00
187, 187500.00, 187500.00, 187500.00, 37332.57, -187500.02, -187500.02, -187500.02, -187500.02, 0.00, 0.00, 0.00
188, 187500.00, 187500.00, 187500.00, 37394.67, -187500.02, -187500.02, -187500.02, -187500.02, -160.00, -320.00, 8688.00
189, 187500.00, 187500.00, 187500.00, 37413.09, -187500.02, -187500.02, -187500.02, -187500.02, 0.00, 0.00, 0.00
190, 187500.00, 187500.00, 187500.00, 37351.46, -187500.02, -187500.02, -187500.02, -187500.02, 0.00, 0.00, 0.00
191, 187500.00, 187500.00, 187500.00, 37321.80, -187500.02, -187500.02, -187500.02, -187500.02, 0.00, 0.00, 0.00
192, 187500.00, 187500.00, 187500.00, 37381.55, -187500.02, -187500.02, -187500.02, -187500.02, 0.00, 0.00, 0.00
193, 187500.00, 187500.00, 187500.00, 37416.68, -187500.02, -187500.02, -187500.02, -187500.02, 0.00, 0.00, 0.00
194, 187500.00, 187500.00, 187500.00, 37362.55, -187500.02, -187500.02, -187500.02, -187500.02, 0.00, 0.00, 0.00
195, 187500.00, 187500.00, 187500.00, 37308.75, -187500.02, -187500.02, -187500.02, -187500.02, 0.00, 0.00, 0.00
196, 187500.00, 187500.00, 187500.00, 37340.27, -187500.02, -187500.02, -187500.02, -187500.02, 0.00, 0.00, 0.00
197, 187500.00, 187500.00, 187500.00, 37392.86, -187500.02, -187500.02, -187500.02, -187500.02, 0.00, 0.00, 0.00
198, 187500.00, 187500.00, 187500.00, 37352.42, -187500.02, -187500.02, -187500.02, -187500.02, -160.00, -288.00, 8688.00
199, 187500.00, 187500.00, 187500.00, 37303.25, -187500.02, -187500.02, -187500.02, -187500.02, 0.00, 0.00, 0.00
200, 187500.00, 187500.00, 187500.00, 37335.37, -187500.02, -187500.02, -187500.02, -187500.02, 0.00, 0.00, 0.00
201, 187500.00, 187500.00, 187500.00, 37383.43, -187500.02, -187500.02, -187500.02, -187500.02, 0.00, 0.00, 0.00
202, 187500.00, 187500.00, 187500.00, 37363.49, -187500.02, -187500.02, -187500.02, -187500.02, 0.00, 0.00, 0.00
203, 187500.00, 187500.00, 187500.00, 37304.39, -187500.02, -187500.02, -187500.02, -187500.02, 0.00, 0.00, 0.00
204, 187500.00, 187500.00, 187500.00, 37305.80, -187500.02, -187500.02, -187500.02, -187500.02, 0.00, 0.00, 0.00
205, 187500.00, 187500.00, 187500.00, 37366.10, -187500.02, -187500.02, -187500.02, -187500.02, 0.00, 0.00, 0.00
206, 187500.00, 187500.00, 187500.00, 37377.55, -187500.02, -187500.02, -187500.02, -187500.02, 0.00, 0.00, 0.00
207, 187500.00, 187500.00, 187500.00, 37316.62, -187500.02, -187500.02, -187500.02, -187500.02, 0.00, 0.00, 0.00
208, 187500.00, 187500.00, 187500.00, 37301.73, -187500.02, -187500.02, -187500.02, -187500.02, -128.00, -288.00, 8672.00
209, 187500.00, 187500.00, 187500.00, 37363.60, -187500.02, -187500.02, -187500.02, -187500.02, 0.00, 0.00, 0.00
210, 187500.00, 187500.00, 187500.00, 37380.86, -187500.02, -187500.02, -187500.02, -187500.02, 0.00, 0.00, 0.00
211, 187500.00, 187500.00, 187500.00, 37329.85, -187500.02, -187500.02, -187500.02, -187500.02, 0.00, 0.00, 0.00
212, 187500.00, 187500.00, 187500.00, 37297.13, -187500.02, -187500.02, -187500.02, -187500.02, 0.00, 0.00, 0.00
213, 187500.00, 187500.00, 187500.00, 37352.80, -187500.02, -187500.02, -187500.02, -187500.02, 0.00, 0.00, 0.00
214, 187500.00, 187500.00, 187500.00, 37387.56, -187500.02, -187500.02, -187500.02, -187500.02, 0.00, 0.00, 0.00
215, 187500.00, 187500.00, 187500.00, 37335.93, -187500.02, -187500.02, -187500.02, -187500.02, 0.00, 0.00, 0.00
216, 187500.00, 187500.00, 187500.00, 37295.32, -187500.02, -187500.02, -187500.02, -187500.02, 0.00, 0.00, 0.00
217, 187500.00, 187500.00, 187500.00, 37347.86, -187500.02, -187500.02, -187500.02, -187500.02, 0.00, 0.00, 0.00
218, 187500.00, 187500.00, 187500.00, 37395.72, -187500.02, -187500.02, -187500.02, -187500.02, -112.00, -288.00, 8672.00
219, 187500.00, 187500.00, 187500.00, 37346.63, -187500.02, -187500.02, -187500.02, -187500.02, 0.00, 0.00, 0.00
220, 187500.00, 187500.00, 187500.00, 37288.41, -187500.02, -187500.02, -187500.02, -187500.02, 0.00, 0.00, 0.00
221, 187500.00, 187500.00, 187500.00, 37327.21, -187500.02, -187500.02, -187500.02, -187500.02, 0.00, 0.00, 0.00
222, 187500.00, 187500.00, 187500.00, 37396.59, -187500.02, -187500.02, -187500.02, -187500.02, 0.00, 0.00, 0.00
223, 187500.00, 187500.00, 187500.00, 37365.93, -187500.02, -187500.02, -187500.02, -187500.02, 0.00, 0.00, 0.00
224, 187500.00, 187500.00, 187500.00, 37342.48, -187500.02, -187500.02, -187500.02, -187500.02, 0.00, 0.00, 0.00
225, 187500.00, 187500.00, 187500.00, 37370.19, -187500.02, -187500.02, -187500.02, -187500.02, 0.00, 0.00, 0.00
226, 187500.00, 187500.00, 187500.00, 37424.55, -187500.02, -187500.02, -187500.02, -187500.02, 0.00, 0.00, 0.00
227, 187500.00, 187500.00, 187500.00, 37406.29, -187500.02, -187500.02, -187500.02, -187500.02, 0.00, 0.00, 0.00
228, 187500.00, 187500.00, 187500.00, 37344.87, -187500.02, -187500.02, -187500.02, -187500.02, -96.00, -272.00, 8672.00
229, 187500.00, 187500.00, 187500.00, 37362.15, -187500.02, -187500.02, -187500.02, -187500.02, 0.00, 0.00, 0.00
230, 187500.00, 187500.00, 187500.00, 37430.18, -187500.02, -187500.02, -187500.02, -187500.02, 0.00, 0.00, 0.00
231, 187500.00, 187500.00, 187500.00, 37440.87, -187500.02, -187500.02, -187500.02, -187500.02, 0.00, 0.00, 0.00
232, 187500.00, 187500.00, 187500.00, 37380.41, -187500.02, -187500.02, -187500.02, -187500.02, 0.00, 0.00, 0.00
233, 187500.00, 187500.00, 187500.00, 37373.70, -187500.02, -187500.02, -187500.02, -187500.02, 0.00, 0.00, 0.00
234, 187500.00, 187500.00, 187500.00, 37415.84, -187500.02, -187500.02, -187500.02, -187500.02, 0.00, 0.00, 0.00
235, 187500.00, 187500.00, 187500.00, 37430.79, -187500.02, -187500.02, -187500.02, -187500.02, 0.00, 0.00, 0.00
236, 187500.00, 187500.00, 187500.00, 37385.88, -187500.02, -187500.02, -187500.02, -187500.02, 0.00, 0.00, 0.00
237, 187500.00, 187500.00, 187500.00, 37363.06, -187500.02, -187500.02, -187500.02, -187500.02, 0.00, 0.00, 0.00
238, 187500.00, 187500.00, 187500.00, 37411.25, -187500.02, -187500.02, -187500.02, -187500.02, -112.00, -288.00, 8704.00
239, 187500.00, 187500.00, 187500.00, 37448.47, -187500.02, -187500.02, -187500.02, -187500.02, 0.00, 0.00, 0.00
240, 187500.00, 187500.00, 187500.00, 37396.61, -187500.02, -187500.02, -187500.02, -187500.02, 0.00, 0.00, 0.00
241, 187500.00, 187500.00, 187500.00, 37359.91, -187500.02, -187500.02, -187500.02, -187500.02, 0.00, 0.00, 0.00
242, 187500.00, 187500.00, 187500.00, 37400.17, -187500.02, -187500.02, -187500.02, -187500.02, 0.00, 0.00, 0.00
243, 187500.00, 187500.00, 187500.00, 37447.91, -187500.02, -187500.02, -187500.02, -187500.02, 0.00, 0.00, 0.00
244, 187500.00, 187500.00, 187500.00, 37429.36, -187500.02, -187500.02, -187500.02, -187500.02, 0.00, 0.00, 0.00
245, 187500.00, 187500.00, 187500.00, 37375.11, -187500.02, -187500.02, -187500.02, -187500.02, 0.00, 0.00, 0.00
246, 187500.00, 187500.00, 187500.00, 37401.08, -187500.02, -187500.02, -187500.02, -187500.02, 0.00, 0.00, 0.00
247, 187500.00, 187500.00, 187500.00, 37460.38, -187500.02, -187500.02, -187500.02, -187500.02, 0.00, 0.00, 0.00
248, 187500.00, 187500.00, 187500.00, 37438.30, -187500.02, -187500.02, -187500.02, -187500.02, -128.00, -240.00, 8720.00
249, 187500.00, 187500.00, 187500.00, 37378.62, -187500.02, -187500.02, -187500.02, -187500.02, 0.00, 0.00, 0.00
250, 187500.00, 187500.00, 187500.00, 37387.65, -187500.02, -187500.02, -187500.02, -187500.02, 0.00, 0.00, 0.00
251, 187500.00, 187500.00, 187500.00, 37449.63, -187500.02, -187500.02, -187500.02, -187500.02, 0.00, 0.00, 0.00
252, 187500.00, 187500.00, 187500.00, 37432.11, -187500.02, -187500.02, -187500.02, -187500.02, 0.00, 0.00, 0.00
253, 187500.00, 187500.00, 187500.00, 37374.71, -187500.02, -187500.02, -187500.02, -187500.02, 0.00, 0.00, 0.00
254, 187500.00, 187500.00, 187500.00, 37379.69, -187500.02, -187500.02, -187500.02, -187500.02, 0.00, 0.00, 0.00
255, 187500.00, 187500.00, 187500.00, 37440.76, -187500.02, -187500.02, -187500.02, -187500.02, 0.00, 0.00, 0.00
0, 187500.00, 187500.00, 187500.00, 37442.61, -187500.02, -187500.02, -187500.02, -187500.02, 0.00, 0.00, 0.00
1, 187500.00, 187500.00, 187500.00, 37379.25, -187500.02, -187500.02, -187500.02, -187500.02, 0.00, 0.00, 0.00
2, 187500.00, 187500.00, 187500.00, 37347.48, -187500.02, -187500.02, -187500.02, -187500.02, -192.00, -304.00, 8704.00
3, 187500.00, 187500.00, 187500.00, 37434.52, -187500.02, -187500.02, -187500.02, -187500.02, 0.00, 0.00, 0.00
4, 187500.00, 187500.00, 187500.00, 37477.28, -187500.02, -187500.02, -187500.02, -187500.02, 0.00, 0.00, 0.00
5, 187500.00, 187500.00, 187500.00, 37426.27, -187500.02, -187500.02, -187500.02, -187500.02, 0.00, 0.00, 0.00
6, 187500.00, 187500.00, 187500.00, 37379.07, -187500.02, -187500.02, -187500.02, -187500.02, 0.00, 0.00, 0.00
7, 187500.00, 187500.00, 187500.00, 37432.31, -187500.02, -187500.02, -187500.02, -187500.02, 0.00, 0.00, 0.00
8, 187500.00, 187500.00, 187500.00, 37471.71, -187500.02, -187500.02, -187500.02, -187500.02, 0.00, 0.00, 0.00
9, 187500.00, 187500.00, 187500.00, 37417.07, -187500.02, -187500.02, -187500.02, -187500.02, 0.00, 0.00, 0.00
10, 187500.00, 187500.00, 187500.00, 37374.66, -187500.02, -187500.02, -187500.02, -187500.02, 0.00, 0.00, 0.00
11, 187500.00, 187500.00, 187500.00, 37418.07, -187500.02, -187500.02, -187500.02, -187500.02, 0.00, 0.00, 0.00
12, 187500.00, 187500.00, 187500.00, 37473.01, -187500.02, -187500.02, -187500.02, -187500.02, -144.00, -240.00, 8752.00
13, 187500.00, 187500.00, 187500.00, 37436.69, -187500.02, -187500.02, -187500.02, -187500.02, 0.00, 0.00, 0.00
14, 187500.00, 187500.00, 187500.00, 37387.76, -187500.02, -187500.02, -187500.02, -187500.02, 0.00, 0.00, 0.00
15, 187500.00, 187500.00, 187500.00, 37434.45, -187500.02, -187500.02, -187500.02, -187500.02, 0.00, 0.00, 0.00
16, 187500.00, 187500.00, 187500.00, 37471.22, -187500.02, -187500.02, -187500.02, -187500.02, 0.00, 0.00, 0.00
17, 187500.00, 187500.00, 187500.00, 37434.43, -187500.02, -187500.02, -187500.02, -187500.02, 0.00, 0.00, 0.00
18, 187500.00, 187500.00, 187500.00, 37383.07, -187500.02, -187500.02, -187500.02, -187500.02, 0.00, 0.00, 0.00
19, 187500.00, 187500.00, 187500.00, 37404.59, -187500.02, -187500.02, -187500.02, -187500.02, 0.00, 0.00, 0.00
20, 187500.00, 187500.00, 187500.00, 37492.43, -187500.02, -187500.02, -187500.02, -187500.02, 0.00, 0.00, 0.00
21, 187500.00, 187500.00, 187500.00, 37478.27, -187500.02, -187500.02, -187500.02, -187500.02, 0.00, 0.00, 0.00
22, 187500.00, 187500.00, 187500.00, 37398.47, -187500.02, -187500.02, -187500.02, -187500.02, -144.00, -240.00, 8704.00
23, 187500.00, 187500.00, 187500.00, 37408.06, -187500.02, -187500.02, -187500.02, -187500.02, 0.00, 0.00, 0.00
24, 187500.00, 187500.00, 187500.00, 37471.96, -187500.02, -187500.02, -187500.02, -187500.02, 0.00, 0.00, 0.00
25, 187500.00, 187500.00, 187500.00, 37473.70, -187500.02, -187500.02, -187500.02, -187500.02, 0.00, 0.00, 0.00
26, 187500.00, 187500.00, 187500.00, 37409.51, -187500.02, -187500.02, -187500.02, -187500.02, 0.00, 0.00, 0.00
27, 187500.00, 187500.00, 187500.00, 37387.23, -187500.02, -187500.02, -187500.02, -187500.02, 0.00, 0.00, 0.00
28, 187500.00, 187500.00, 187500.00, 37453.43, -187500.02, -187500.02, -187500.02, -187500.02, 0.00, 0.00, 0.00
29, 187500.00, 187500.00, 187500.00, 37481.57, -187500.02, -187500.02, -187500.02, -187500.02, 0.00, 0.00, 0.00
30, 187500.00, 187500.00, 187500.00, 37423.66, -187500.02, -187500.02, -187500.02, -187500.02, 0.00, 0.00, 0.00
31, 187500.00, 187500.00, 187500.00, 37386.62, -187500.02, -187500.02, -187500.02, -187500.02, 0.00, 0.00, 0.00
32, 187500.00, 187500.00, 187500.00, 37430.07, -187500.02, -187500.02, -187500.02, -187500.02, -128.00, -224.00, 8656.00
33, 187500.00, 187500.00, 187500.00, 37462.48, -187500.02, -187500.02, -187500.02, -187500.02, 0.00, 0.00, 0.00
34, 187500.00, 187500.00, 187500.00, 37411.66, -187500.02, -187500.02, -187500.02, -187500.02, 0.00, 0.00, 0.00
35, 187500.00, 187500.00, 187500.00, 37358.23, -187500.02, -187500.02, -187500.02, -187500.02, 0.00, 0.00, 0.00
36, 187500.00, 187500.00, 187500.00, 37419.14, -187500.02, -187500.02, -187500.02, -187500.02, 0.00, 0.00, 0.00
37, 187500.00, 187500.00, 187500.00, 37474.96, -187500.02, -187500.02, -187500.02, -187500.02, 0.00, 0.00, 0.00
38, 187500.00, 187500.00, 187500.00, 37420.53, -187500.02, -187500.02, -187500.02, -187500.02, 0.00, 0.00, 0.00
39, 187500.00, 187500.00, 187500.00, 37356.45, -187500.02, -187500.02, -187500.02, -187500.02, 0.00, 0.00, 0.00
40, 187500.00, 187500.00, 187500.00, 37371.60, -187500.02, -187500.02, -187500.02, -187500.02, 0.00, 0.00, 0.00
41, 187500.00, 187500.00, 187500.00, 37455.00, -187500.02, -187500.02, -187500.02, -187500.02, 0.00, 0.00, 0.00
42, 187500.00, 187500.00, 187500.00, 37450.23, -187500.02, -187500.02, -187500.02, -187500.02, -224.00, -272.00, 8784.00
43, 187500.00, 187500.00, 187500.00, 37379.45, -187500.02, -187500.02, -187500.02, -187500.02, 0.00, 0.00, 0.00
44, 187500.00, 187500.00, 187500.00, 37393.48, -187500.02, -187500.02, -187500.02, -187500.02, 0.00, 0.00, 0.00
45, 187500.00, 187500.00, 187500.00, 37460.50, -187500.02, -187500.02, -187500.02, -187500.02, 0.00, 0.00, 0.00
46, 187500.00, 187500.00, 187500.00, 37465.46, -187500.02, -187500.02, -187500.02, -187500.02, 0.00, 0.00, 0.00
47, 187500.00, 187500.00, 187500.00, 37397.84, -187500.02, -187500.02, -187500.02, -187500.02, 0.00, 0.00, 0.00
48, 187500.00, 187500.00, 187500.00, 37377.50, -187500.02, -187500.02, -187500.02, -187500.02, 0.00, 0.00, 0.00
49, 187500.00, 187500.00, 187500.00, 37429.92, -187500.02, -187500.02, -187500.02, -187500.02, 0.00, 0.00, 0.00
50, 187500.00, 187500.00, 187500.00, 37443.39, -187500.02, -187500.02, -187500.02, -187500.02, 0.00, 0.00, 0.00
51, 187500.00, 187500.00, 187500.00, 37372.74, -187500.02, -187500.02, -187500.02, -187500.02, 0.00, 0.00, 0.00
52, 187500.00, 187500.00, 187500.00, 37347.19, -187500.02, -187500.02, -187500.02, -187500.02, 0.00, 0.00, 0.00
53, 187500.00, 187500.00, 187500.00, 37416.71, -187500.02, -187500.02, -187500.02, -187500.02, -144.00, -288.00, 8736.00
54, 187500.00, 187500.00, 187500.00, 37441.14, -187500.02, -187500.02, -187500.02, -187500.02, 0.00, 0.00, 0.00
55, 187500.00, 187500.00, 187500.00, 37379.96, -187500.02, -187500.02, -187500.02, -187500.02, 0.00, 0.00, 0.00
56, 187500.00, 187500.00, 187500.00, 37371.24, -187500.02, -187500.02, -187500.02, -187500.02, 0.00, 0.00, 0.00
57, 187500.00, 187500.00, 187500.00, 37429.16, -187500.02, -187500.02, -187500.02, -187500.02, 0.00, 0.00, 0.00
58, 187500.00, 187500.00, 187500.00, 37447.17, -187500.02, -187500.02, -187500.02, -187500.02, 0.00, 0.00, 0.00
59, 187500.00, 187500.00, 187500.00, 37408.26, -187500.02, -187500.02, -187500.02, -187500.02, 0.00, 0.00, 0.00
60, 187500.00, 187500.00, 187500.00, 37347.98, -187500.02, -187500.02, -187500.02, -187500.02, 0.00, 0.00, 0.00
61, 187500.00, 187500.00, 187500.00, 37367.82, -187500.02, -187500.02, -187500.02, -187500.02, 0.00, 0.00, 0.00
62, 187500.00, 187500.00, 187500.00, 37423.26, -187500.02, -187500.02, -187500.02, -187500.02, 0.00, 0.00, 0.00
63, 187500.00, 187500.00, 187500.00, 37395.14, -187500.02, -187500.02, -187500.02, -187500.02, -128.00, -256.00, 8720.00
64, 187500.00, 187500.00, 187500.00, 37340.51, -187500.02, -187500.02, -187500.02, -187500.02, 0.00, 0.00, 0.00
65, 187500.00, 187500.00, 187500.00, 37379.78, -187500.02, -187500.02, -187500.02, -187500.02, 0.00, 0.00, 0.00
66, 187500.00, 187500.00, 187500.00, 37420.21, -187500.02, -187500.02, -187500.02, -187500.02, 0.00, 0.00, 0.00
67, 187500.00, 187500.00, 187500.00, 37400.84, -187500.02, -187500.02, -187500.02, -187500.02, 0.00, 0.00, 0.00
68, 187500.00, 187500.00, 187500.00, 37333.60, -187500.02, -187500.02, -187500.02, -187500.02, 0.00, 0.00, 0.00
69, 187500.00, 187500.00, 187500.00, 37331.17, -187500.02, -187500.02, -187500.02, -187500.02, 0.00, 0.00, 0.00
70, 187500.00, 187500.00, 187500.00, 37395.23, -187500.02, -187500.02, -187500.02, -187500.02, 0.00, 0.00, 0.00
71, 187500.00, 187500.00, 187500.00, 37389.97, -187500.02, -187500.02, -187500.02, -187500.02, 0.00, 0.00, 0.00
72, 187500.00, 187500.00, 187500.00, 37332.80, -187500.02, -187500.02, -187500.02, -187500.02, 0.00, 0.00, 0.00
73, 187500.00, 187500.00, 187500.00, 37324.93, -187500.02, -187500.02, -187500.02, -187500.02, -128.00, -304.00, 8704.00
74, 187500.00, 187500.00, 187500.00, 37379.27, -187500.02, -187500.02, -187500.02, -187500.02, 0.00, 0.00, 0.00
75, 187500.00, 187500.00, 187500.00, 37410.88, -187500.02, -187500.02, -187500.02, -187500.02, 0.00, 0.00, 0.00
76, 187500.00, 187500.00, 187500.00, 37355.42, -187500.02, -187500.02, -187500.02, -187500.02, 0.00, 0.00, 0.00
77, 187500.00, 187500.00, 187500.00, 37322.74, -187500.02, -187500.02, -187500.02, -187500.02, 0.00, 0.00, 0.00
78, 187500.00, 187500.00, 187500.00, 37374.60, -187500.02, -187500.02, -187500.02, -187500.02, 0.00, 0.00, 0.00
79, 187500.00, 187500.00, 187500.00, 37406.38, -187500.02, -187500.02, -187500.02, -187500.02, 0.00, 0.00, 0.00
80, 187500.00, 187500.00, 187500.00, 37373.61, -187500.02, -187500.02, -187500.02, -187500.02, 0.00, 0.00, 0.00
81, 187500.00, 187500.00, 187500.00, 37329.31, -187500.02, -187500.02, -187500.02, -187500.02, 0.00, 0.00, 0.00
82, 187500.00, 187500.00, 187500.00, 37367.64, -187500.02, -187500.02, -187500.02, -187500.02, 0.00, 0.00, 0.00
83, 187500.00, 187500.00, 187500.00, 37409.96, -187500.02, -187500.02, -187500.02, -187500.02, -144.00, -256.00, 8768.00
84, 187500.00, 187500.00, 187500.00, 37372.81, -187500.02, -187500.02, -187500.02, -187500.02, 0.00, 0.00, 0.00
85, 187500.00, 187500.00, 187500.00, 37320.39, -187500.02, -187500.02, -187500.02, -187500.02, 0.00, 0.00, 0.00
86, 187500.00, 187500.00, 187500.00, 37357.05, -187500.02, -187500.02, -187500.02, -187500.02, 0.00, 0.00, 0.00
87, 187500.00, 187500.00, 187500.00, 37414.11, -187500.02, -187500.02, -187500.02, -187500.02, 0.00, 0.00, 0.00
88, 187500.00, 187500.00, 187500.00, 37395.00, -187500.02, -187500.02, -187500.02, -187500.02, 0.00, 0.00, 0.00
89, 187500.00, 187500.00, 187500.00, 37337.67, -187500.02, -187500.02, -187500.02, -187500.02, 0.00, 0.00, 0.00
90, 187500.00, 187500.00, 187500.00, 37361.95, -187500.02, -187500.02, -187500.02, -187500.02, 0.00, 0.00, 0.00
91, 187500.00, 187500.00, 187500.00, 37437.23, -187500.02, -187500.02, -187500.02, -187500.02, 0.00, 0.00, 0.00
92, 187500.00, 187500.00, 187500.00, 37430.66, -187500.02, -187500.02, -187500.02, -187500.02, 0.00, 0.00, 0.00
93, 187500.00, 187500.00, 187500.00, 37365.86, -187500.02, -187500.02, -187500.02, -187500.02, -160.00, -288.00, 8768.00
94, 187500.00, 187500.00, 187500.00, 37360.40, -187500.02, -187500.02, -187500.02, -187500.02, 0.00, 0.00, 0.00
95, 187500.00, 187500.00, 187500.00, 37422.77, -187500.02, -187500.02, -187500.02, -187500.02, 0.00, 0.00, 0.00
96, 187500.00, 187500.00, 187500.00, 37434.99, -187500.02, -187500.02, -187500.02, -187500.02, 0.00, 0.00, 0.00
97, 187500.00, 187500.00, 187500.00, 37376.99, -187500.02, -187500.02, -187500.02, -187500.02, 0.00, 0.00, 0.00
98, 187500.00, 187500.00, 187500.00, 37370.08, -187500.02, -187500.02, -187500.02, -187500.02, 0.00, 0.00, 0.00
99, 187500.00, 187500.00, 187500.00, 37435.17, -187500.02, -187500.02, -187500.02, -187500.02, 0.00, 0.00, 0.00
100, 187500.00, 187500.00, 187500.00, 37465.72, -187500.02, -187500.02, -187500.02, -187500.02, 0.00, 0.00, 0.00
101, 187500.00, 187500.00, 187500.00, 37405.49, -187500.02, -187500.02, -187500.02, -187500.02, 0.00, 0.00, 0.00
102, 187500.00, 187500.00, 187500.00, 37366.33, -187500.02, -187500.02, -187500.02, -187500.02, 0.00, 0.00, 0.00
103, 187500.00, 187500.00, 187500.00, 37431.39, -187500.02, -187500.02, -187500.02, -187500.02, -144.00, -320.00, 8704.00
104, 187500.00, 187500.00, 187500.00, 37480.72, -187500.02, -187500.02, -187500.02, -187500.02, 0.00, 0.00, 0.00
105, 187500.00, 187500.00, 187500.00, 37416.89, -187500.02, -187500.02, -187500.02, -187500.02, 0.00, 0.00, 0.00
106, 187500.00, 187500.00, 187500.00, 37370.51, -187500.02, -187500.02, -187500.02, -187500.02, 0.00, 0.00, 0.00
107, 187500.00, 187500.00, 187500.00, 37441.96, -187500.02, -187500.02, -187500.02, -187500.02, 0.00, 0.00, 0.00
108, 187500.00, 187500.00, 187500.00, 37496.91, -187500.02, -187500.02, -187500.02, -187500.02, 0.00, 0.00, 0.00
109, 187500.00, 187500.00, 187500.00, 37456.89, -187500.02, -187500.02, -187500.02, -187500.02, 0.00, 0.00, 0.00
110, 187500.00, 187500.00, 187500.00, 37403.81, -187500.02, -187500.02, -187500.02, -187500.02, 0.00, 0.00, 0.00
111, 187500.00, 187500.00, 187500.00, 37425.43, -187500.02, -187500.02, -187500.02, -187500.02, 0.00, 0.00, 0.00
112, 187500.00, 187500.00, 187500.00, 37469.64, -187500.02, -187500.02, -187500.02, -187500.02, 0.00, 0.00, 0.00
113, 187500.00, 187500.00, 187500.00, 37457.79, -187500.02, -187500.02, -187500.02, -187500.02, -112.00, -336.00, 8672.00
114, 187500.00, 187500.00, 187500.00, 37400.46, -187500.02, -187500.02, -187500.02, -187500.02, 0.00, 0.00, 0.00
115, 187500.00, 187500.00, 187500.00, 37421.09, -187500.02, -187500.02, -187500.02, -187500.02, 0.00, 0.00, 0.00
116, 187500.00, 187500.00, 187500.00, 37487.00, -187500.02, -187500.02, -187500.02, -187500.02, 0.00, 0.00, 0.00
117, 187500.00, 187500.00, 187500.00, 37481.15, -187500.02, -187500.02, -187500.02, -187500.02, 0.00, 0.00, 0.00
118, 187500.00, 187500.00, 187500.00, 37422.38, -187500.02, -187500.02, -187500.02, -187500.02, 0.00, 0.00, 0.00
119, 187500.00, 187500.00, 187500.00, 37415.23, -187500.02, -187500.02, -187500.02, -187500.02, 0.00, 0.00, 0.00
120, 187500.00, 187500.00, 187500.00, 37470.15, -187500.02, -187500.02, -187500.02, -187500.02, 0.00, 0.00, 0.00
121, 187500.00, 187500.00, 187500.00, 37477.66, -187500.02, -187500.02, -187500.02, -187500.02, 0.00, 0.00, 0.00
122, 187500.00, 187500.00, 187500.00, 37413.00, -187500.02, -187500.02, -187500.02, -187500.02, 0.00, 0.00, 0.00
123, 187500.00, 187500.00, 187500.00, 37387.79, -187500.02, -187500.02, -187500.02, -187500.02, -112.00, -272.00, 8688.00
124, 187500.00, 187500.00, 187500.00, 37450.05, -187500.02, -187500.02, -187500.02, -187500.02, 0.00, 0.00, 0.00
125, 187500.00, 187500.00, 187500.00, 37494.45, -187500.02, -187500.02, -187500.02, -187500.02, 0.00, 0.00, 0.00
126, 187500.00, 187500.00, 187500.00, 37434.23, -187500.02, -187500.02, -187500.02, -187500.02, 0.00, 0.00, 0.00
127, 187500.00, 187500.00, 187500.00, 37401.64, -187500.02, -187500.02, -187500.02, -187500.02, 0.00, 0.00, 0.00
128, 187500.00, 187500.00, 187500.00, 37446.70, -187500.02, -187500.02, -187500.02, -187500.02, 0.00, 0.00, 0.00
129, 187500.00, 187500.00, 187500.00, 37467.25, -187500.02, -187500.02, -187500.02, -187500.02, 0.00, 0.00, 0.00
130, 187500.00, 187500.00, 187500.00, 37424.95, -187500.02, -187500.02, -187500.02, -187500.02, 0.00, 0.00, 0.00
131, 187500.00, 187500.00, 187500.00, 37393.98, -187500.02, -187500.02, -187500.02, -187500.02, 0.00, 0.00, 0.00
132, 187500.00, 187500.00, 187500.00, 37453.39, -187500.02, -187500.02, -187500.02, -187500.02, 0.00, 0.00, 0.00
133, 187500.00, 187500.00, 187500.00, 37508.42, -187500.02, -187500.02, -187500.02, -187500.02, -128.00, -272.00, 8640.00
134, 187500.00, 187500.00, 187500.00, 37462.37, -187500.02, -187500.02, -187500.02, -187500.02, 0.00, 0.00, 0.00
135, 187500.00, 187500.00, 187500.00, 37411.86, -187500.02, -187500.02, -187500.02, -187500.02, 0.00, 0.00, 0.00
136, 187500.00, 187500.00, 187500.00, 37447.95, -187500.02, -187500.02, -187500.02, -187500.02, 0.00, 0.00, 0.00
137, 187500.00, 187500.00, 187500.00, 37505.87, -187500.02, -187500.02, -187500.02, -187500.02, 0.00, 0.00, 0.00
138, 187500.00, 187500.00, 187500.00, 37484.37, -187500.02, -187500.02, -187500.02, -187500.02, 0.00, 0.00, 0.00
139, 187500.00, 187500.00, 187500.00, 37428.57, -187500.02, -187500.02, -187500.02, -187500.02, 0.00, 0.00, 0.00
140, 187500.00, 187500.00, 187500.00, 37451.15, -187500.02, -187500.02, -187500.02, -187500.02, 0.00, 0.00, 0.00
141, 187500.00, 187500.00, 187500.00, 37504.19, -187500.02, -187500.02, -187500.02, -187500.02, 0.00, 0.00, 0.00
142, 187500.00, 187500.00, 187500.00, 37495.03, -187500.02, -187500.02, -187500.02, -187500.02, 0.00, 0.00, 0.00
143, 187500.00, 187500.00, 187500.00, 37429.58, -187500.02, -187500.02, -187500.02, -187500.02, -144.00, -320.00, 8656.00
144, 187500.00, 187500.00, 187500.00, 37450.04, -187500.02, -187500.02, -187500.02, -187500.02, 0.00, 0.00, 0.00
145, 187500.00, 187500.00, 187500.00, 37508.28, -187500.02, -187500.02, -187500.02, -187500.02, 0.00, 0.00, 0.00
146, 187500.00, 187500.00, 187500.00, 37506.65, -187500.02, -187500.02, -187500.02, -187500.02, 0.00, 0.00, 0.00
147, 187500.00, 187500.00, 187500.00, 37439.08, -187500.02, -187500.02, -187500.02, -187500.02, 0.00, 0.00, 0.00
148, 187500.00, 187500.00, 187500.00, 37439.37, -187500.02, -187500.02, -187500.02, -187500.02, 0.00, 0.00, 0.00
149, 187500.00, 187500.00, 187500.00, 37491.12, -187500.02, -187500.02, -187500.02, -187500.02, 0.00, 0.00, 0.00
150, 187500.00, 187500.00, 187500.00, 37514.29, -187500.02, -187500.02, -187500.02, -187500.02, 0.00, 0.00, 0.00
151, 187500.00, 187500.00, 187500.00, 37456.11, -187500.02, -187500.02, -187500.02, -187500.02, 0.00, 0.00, 0.00
152, 187500.00, 187500.00, 187500.00, 37426.72, -187500.02, -187500.02, -187500.02, -187500.02, 0.00, 0.00, 0.00
153, 187500.00, 187500.00, 187500.00, 37480.05, -187500.02, -187500.02, -187500.02, -187500.02, -128.00, -320.00, 8640.00
154, 187500.00, 187500.00, 187500.00, 37519.97, -187500.02, -187500.02, -187500.02, -187500.02, 0.00, 0.00, 0.00
155, 187500.00, 187500.00, 187500.00, 37466.24, -187500.02, -187500.02, -187500.02, -187500.02, 0.00, 0.00, 0.00
156, 187500.00, 187500.00, 187500.00, 37399.25, -187500.02, -187500.02, -187500.02, -187500.02, 0.00, 0.00, 0.00
157, 187500.00, 187500.00, 187500.00, 37444.80, -187500.02, -187500.02, -187500.02, -187500.02, 0.00, 0.00, 0.00
158, 187500.00, 187500.00, 187500.00, 37486.15, -187500.02, -187500.02, -187500.02, -187500.02, 0.00, 0.00, 0.00
159, 187500.00, 187500.00, 187500.00, 37438.81, -187500.02, -187500.02, -187500.02, -187500.02, 0.00, 0.00, 0.00
160, 187500.00, 187500.00, 187500.00, 37396.95, -187500.02, -187500.02, -187500.02, -187500.02, 0.00, 0.00, 0.00
161, 187500.00, 187500.00, 187500.00, 37431.79, -187500.02, -187500.02, -187500.02, -187500.02, 0.00, 0.00, 0.00
162, 187500.00, 187500.00, 187500.00, 37491.45, -187500.02, -187500.02, -187500.02, -187500.02, 0.00, 0.00, 0.00
163, 187500.00, 187500.00, 187500.00, 37449.83, -187500.02, -187500.02, -187500.02, -187500.02, -128.00, -304.00, 8704.00
164, 187500.00, 187500.00, 187500.00, 37377.82, -187500.02, -187500.02, -187500.02, -187500.02, 0.00, 0.00, 0.00
165, 187500.00, 187500.00, 187500.00, 37404.77, -187500.02, -187500.02, -187500.02, -187500.02, 0.00, 0.00, 0.00
166, 187500.00, 187500.00, 187500.00, 37472.12, -187500.02, -187500.02, -187500.02, -187500.02, 0.00, 0.00, 0.00
167, 187500.00, 187500.00, 187500.00, 37466.04, -187500.02, -187500.02, -187500.02, -187500.02, 0.00, 0.00, 0.00
168, 187500.00, 187500.00, 187500.00, 37381.64, -187500.02, -187500.02, -187500.02, -187500.02, 0.00, 0.00, 0.00
169, 187500.00, 187500.00, 187500.00, 37365.34, -187500.02, -187500.02, -187500.02, -187500.02, 0.00, 0.00, 0.00
170, 187500.00, 187500.00, 187500.00, 37434.77, -187500.02, -187500.02, -187500.02, -187500.02, 0.00, 0.00, 0.00
171, 187500.00, 187500.00, 187500.00, 37460.70, -187500.02, -187500.02, -187500.02, -187500.02, 0.00, 0.00, 0.00
172, 187500.00, 187500.00, 187500.00, 37385.41, -187500.02, -187500.02, -187500.02, -187500.02, 0.00, 0.00, 0.00
173, 187500.00, 187500.00, 187500.00, 37344.76, -187500.02, -187500.02, -187500.02, -187500.02, -128.00, -240.00, 8736.00
174, 187500.00, 187500.00, 187500.00, 37402.56, -187500.02, -187500.02, -187500.02, -187500.02, 0.00, 0.00, 0.00
175, 187500.00, 187500.00, 187500.00, 37433.49, -187500.02, -187500.02, -187500.02, -187500.02, 0.00, 0.00, 0.00
176, 187500.00, 187500.00, 187500.00, 37364.56, -187500.02, -187500.02, -187500.02, -187500.02, 0.00, 0.00, 0.00
177, 187500.00, 187500.00, 187500.00, 37338.50, -187500.02, -187500.02, -187500.02, -187500.02, 0.00, 0.00, 0.00
178, 187500.00, 187500.00, 187500.00, 37393.93, -187500.02, -187500.02, -187500.02, -187500.02, 0.00, 0.00, 0.00
179, 187500.00, 187500.00, 187500.00, 37443.69, -187500.02, -187500.02, -187500.02, -187500.02, 0.00, 0.00, 0.00
180, 187500.00, 187500.00, 187500.00, 37386.15, -187500.02, -187500.02, -187500.02, -187500.02, 0.00, 0.00, 0.00
181, 187500.00, 187500.00, 187500.00, 37311.00, -187500.02, -187500.02, -187500.02, -187500.02, 0.00, 0.00, 0.00
182, 187500.00, 187500.00, 187500.00, 37364.38, -187500.02, -187500.02, -187500.02, -187500.02, 0.00, 0.00, 0.00
183, 187500.00, 187500.00, 187500.00, 37419.93, -187500.02, -187500.02, -187500.02, -187500.02, -96.00, -256.00, 8672.00
184, 187500.00, 187500.00, 187500.00, 37382.35, -187500.02, -187500.02, -187500.02, -187500.02, 0.00, 0.00, 0.00
185, 187500.00, 187500.00, 187500.00, 37316.86, -187500.02, -187500.02, -187500.02, -187500.02, 0.00, 0.00, 0.00
186, 187500.00, 187500.00, 187500.00, 37325.49, -187500.02, -187500.02, -187500.02, -187500.02, 0.00, 0.00, 0.00
187, 187500.00, 187500.00, 187500.00, 37388.66, -187500.02, -187500.02, -187500.02, -187500.02, 0.00, 0.00, 0.00
188, 187500.00, 187500.00, 187500.00, 37379.04, -187500.02, -187500.02, -187500.02, -187500.02, 0.00, 0.00, 0.00
189, 187500.00, 187500.00, 187500.00, 37298.04, -187500.02, -187500.02, -187500.02, -187500.02, 0.00, 0.00, 0.00
190, 187500.00, 187500.00, 187500.00, 37309.39, -187500.02, -187500.02, -187500.02, -187500.02, 0.00, 0.00, 0.00
191, 187500.00, 187500.00, 187500.00, 37365.25, -187500.02, -187500.02, -187500.02, -187500.02, 0.00, 0.00, 0.00
192, 187500.00, 187500.00, 187500.00, 37352.07, -187500.02, -187500.02, -187500.02, -187500.02, 0.00, 0.00, 0.00
193, 187500.00, 187500.00, 187500.00, 37311.45, -187500.02, -187500.02, -187500.02, -187500.02, -96.00, -208.00, 8688.00
194, 187500.00, 187500.00, 187500.00, 37309.96, -187500.02, -187500.02, -187500.02, -187500.02, 0.00, 0.00, 0.00
195, 187500.00, 187500.00, 187500.00, 37361.32, -187500.02, -187500.02, -187500.02, -187500.02, 0.00, 0.00, 0.00
196, 187500.00, 187500.00, 187500.00, 37371.58, -187500.02, -187500.02, -187500.02, -187500.02, 0.00, 0.00, 0.00
197, 187500.00, 187500.00, 187500.00, 37325.00, -187500.02, -187500.02, -187500.02, -187500.02, 0.00, 0.00, 0.00
198, 187500.00, 187500.00, 187500.00, 37311.41, -187500.02, -187500.02, -187500.02, -187500.02, 0.00, 0.00, 0.00
199, 187500.00, 187500.00, 187500.00, 37365.25, -187500.02, -187500.02, -187500.02, -187500.02, 0.00, 0.00, 0.00
200, 187500.00, 187500.00, 187500.00, 37401.35, -187500.02, -187500.02, -187500.02, -187500.02, 0.00, 0.00, 0.00
201, 187500.00, 187500.00, 187500.00, 37349.56, -187500.02, -187500.02, -187500.02, -187500.02, 0.00, 0.00, 0.00
202, 187500.00, 187500.00, 187500.00, 37303.92, -187500.02, -187500.02, -187500.02, -187500.02, 0.00, 0.00, 0.00
203, 187500.00, 187500.00, 187500.00, 37348.22, -187500.02, -187500.02, -187500.02, -187500.02, 0.00, 0.00, 0.00
204, 187500.00, 187500.00, 187500.00, 37401.13, -187500.02, -187500.02, -187500.02, -187500.02, -192.00, -304.00, 8752.00
205, 187500.00, 187500.00, 187500.00, 37369.57, -187500.02, -187500.02, -187500.02, -187500.02, 0.00, 0.00, 0.00
206, 187500.00, 187500.00, 187500.00, 37309.29, -187500.02, -187500.02, -187500.02, -187500.02, 0.00, 0.00, 0.00
207, 187500.00, 187500.00, 187500.00, 37343.55, -187500.02, -187500.02, -187500.02, -187500.02, 0.00, 0.00, 0.00
208, 187500.00, 187500.00, 187500.00, 37399.65, -187500.02, -187500.02, -187500.02, -187500.02, 0.00, 0.00, 0.00
209, 187500.00, 187500.00, 187500.00, 37390.62, -187500.02, -187500.02, -187500.02, -187500.02, 0.00, 0.00, 0.00
210, 187500.00, 187500.00, 187500.00, 37342.14, -187500.02, -187500.02, -187500.02, -187500.02, 0.00, 0.00, 0.00
211, 187500.00, 187500.00, 187500.00, 37361.86, -187500.02, -187500.02, -187500.02, -187500.02, 0.00, 0.00, 0.00
212, 187500.00, 187500.00, 187500.00, 37417.80, -187500.02, -187500.02, -187500.02, -187500.02, 0.00, 0.00, 0.00
213, 187500.00, 187500.00, 187500.00, 37409.98, -187500.02, -187500.02, -187500.02, -187500.02, 0.00, 0.00, 0.00
214, 187500.00, 187500.00, 187500.00, 37347.48, -187500.02, -187500.02, -187500.02, -187500.02, -192.00, -192.00, 8672.00
215, 187500.00, 187500.00, 187500.00, 37358.39, -187500.02, -187500.02, -187500.02, -187500.02, 0.00, 0.00, 0.00
216, 187500.00, 187500.00, 187500.00, 37411.12, -187500.02, -187500.02, -187500.02, -187500.02, 0.00, 0.00, 0.00
217, 187500.00, 187500.00, 187500.00, 37424.82, -187500.02, -187500.02, -187500.02, -187500.02, 0.00, 0.00, 0.00
218, 187500.00, 187500.00, 187500.00, 37375.94, -187500.02, -187500.02, -187500.02, -187500.02, 0.00, 0.00, 0.00
219, 187500.00, 187500.00, 187500.00, 37350.32, -187500.02, -187500.02, -187500.02, -187500.02, 0.00, 0.00, 0.00
220, 187500.00, 187500.00, 187500.00, 37425.11, -187500.02, -187500.02, -187500.02, -187500.02, 0.00, 0.00, 0.00
221, 187500.00, 187500.00, 187500.00, 37448.76, -187500.02, -187500.02, -187500.02, -187500.02, 0.00, 0.00, 0.00
222, 187500.00, 187500.00, 187500.00, 37394.22, -187500.02, -187500.02, -187500.02, -187500.02, 0.00, 0.00, 0.00
223, 187500.00, 187500.00, 187500.00, 37359.44, -187500.02, -187500.02, -187500.02, -187500.02, 0.00, 0.00, 0.00
224, 187500.00, 187500.00, 187500.00, 37409.00, -187500.02, -187500.02, -187500.02, -187500.02, -176.00, -208.00, 8688.00
225, 187500.00, 187500.00, 187500.00, 37451.84, -187500.02, -187500.02, -187500.02, -187500.02, 0.00, 0.00, 0.00
226, 187500.00, 187500.00, 187500.00, 37414.43, -187500.02, -187500.02, -187500.02, -187500.02, 0.00, 0.00, 0.00
227, 187500.00, 187500.00, 187500.00, 37362.73, -187500.02, -187500.02, -187500.02, -187500.02, 0.00, 0.00, 0.00
228, 187500.00, 187500.00, 187500.00, 37405.78, -187500.02, -187500.02, -187500.02, -187500.02, 0.00, 0.00, 0.00
229, 187500.00, 187500.00, 187500.00, 37454.17, -187500.02, -187500.02, -187500.02, -187500.02, 0.00, 0.00, 0.00
230, 187500.00, 187500.00, 187500.00, 37432.15, -187500.02, -187500.02, -187500.02, -187500.02, 0.00, 0.00, 0.00
231, 187500.00, 187500.00, 187500.00, 37367.60, -187500.02, -187500.02, -187500.02, -187500.02, 0.00, 0.00, 0.00
232, 187500.00, 187500.00, 187500.00, 37403.92, -187500.02, -187500.02, -187500.02, -187500.02, 0.00, 0.00, 0.00
233, 187500.00, 187500.00, 187500.00, 37474.87, -187500.02, -187500.02, -187500.02, -187500.02, 0.00, 0.00, 0.00
234, 187500.00, 187500.00, 187500.00, 37438.50, -187500.02, -187500.02, -187500.02, -187500.02, -192.00, -240.00, 8720.00
235, 187500.00, 187500.00, 187500.00, 37359.66, -187500.02, -187500.02, -187500.02, -187500.02, 0.00, 0.00, 0.00
236, 187500.00, 187500.00, 187500.00, 37382.24, -187500.02, -187500.02, -187500.02, -187500.02, 0.00, 0.00, 0.00
237, 187500.00, 187500.00, 187500.00, 37465.61, -187500.02, -187500.02, -187500.02, -187500.02, 0.00, 0.00, 0.00
238, 187500.00, 187500.00, 187500.00, 37457.61, -187500.02, -187500.02, -187500.02, -187500.02, 0.00, 0.00, 0.00
239, 187500.00, 187500.00, 187500.00, 37390.71, -187500.02, -187500.02, -187500.02, -187500.02, 0.00, 0.00, 0.00
240, 187500.00, 187500.00, 187500.00, 37396.16, -187500.02, -187500.02, -187500.02, -187500.02, 0.00, 0.00, 0.00
241, 187500.00, 187500.00, 187500.00, 37462.95, -187500.02, -187500.02, -187500.02, -187500.02, 0.00, 0.00, 0.00
242, 187500.00, 187500.00, 187500.00, 37479.34, -187500.02, -187500.02, -187500.02, -187500.02, 0.00, 0.00, 0.00
243, 187500.00, 187500.00, 187500.00, 37400.28, -187500.02, -187500.02, -187500.02, -187500.02, 0.00, 0.00, 0.00
244, 187500.00, 187500.00, 187500.00, 37378.95, -187500.02, -187500.02, -187500.02, -187500.02, -192.00, -208.00, 8720.00
245, 187500.00, 187500.00, 187500.00, 37462.10, -187500.02, -187500.02, -187500.02, -187500.02, 0.00, 0.00, 0.00
246, 187500.00, 187500.00, 187500.00, 37492.68, -187500.02, -187500.02, -187500.02, -187500.02, 0.00, 0.00, 0.00
247, 187500.00, 187500.00, 187500.00, 37426.23, -187500.02, -187500.02, -187500.02, -187500.02, 0.00, 0.00, 0.00
248, 187500.00, 187500.00, 187500.00, 37396.95, -187500.02, -187500.02, -187500.02, -187500.02, 0.00, 0.00, 0.00
249, 187500.00, 187500.00, 187500.00, 37449.77, -187500.02, -187500.02, -187500.02, -187500.02, 0.00, 0.00, 0.00
250, 187500.00, 187500.00, 187500.00, 37495.79, -187500.02, -187500.02, -187500.02, -187500.02, 0.00, 0.00, 0.00
251, 187500.00, 187500.00, 187500.00, 37451.98, -187500.02, -187500.02, -187500.02, -187500.02, 0.00, 0.00, 0.00
252, 187500.00, 187500.00, 187500.00, 37397.15, -187500.02, -187500.02, -187500.02, -187500.02, 0.00, 0.00, 0.00
253, 187500.00, 187500.00, 187500.00, 37436.60, -187500.02, -187500.02, -187500.02, -187500.02, 0.00, 0.00, 0.00
254, 187500.00, 187500.00, 187500.00, 37505.62, -187500.02, -187500.02, -187500.02, -187500.02, -160.00, -240.00, 8752.00
255, 187500.00, 187500.00, 187500.00, 37478.98, -187500.02, -187500.02, -187500.02, -187500.02, 0.00, 0.00, 0.00
0, 187500.00, 187500.00, 187500.00, 37425.34, -187500.02, -187500.02, -187500.02, -187500.02, 0.00, 0.00, 0.00
1, 187500.00, 187500.00, 187500.00, 37456.67, -187500.02, -187500.02, -187500.02, -187500.02, 0.00, 0.00, 0.00
2, 187500.00, 187500.00, 187500.00, 37508.42, -187500.02, -187500.02, -187500.02, -187500.02, 0.00, 0.00, 0.00
3, 187500.00, 187500.00, 187500.00, 37489.62, -187500.02, -187500.02, -187500.02, -187500.02, 0.00, 0.00, 0.00
4, 187500.00, 187500.00, 187500.00, 37423.48, -187500.02, -187500.02, -187500.02, -187500.02, 0.00, 0.00, 0.00
5, 187500.00, 187500.00, 187500.00, 37436.22, -187500.02, -187500.02, -187500.02, -187500.02, 0.00, 0.00, 0.00
6, 187500.00, 187500.00, 187500.00, 37510.38, -187500.02, -187500.02, -187500.02, -187500.02, 0.00, 0.00, 0.00
7, 187500.00, 187500.00, 187500.00, 37502.67, -187500.02, -187500.02, -187500.02, -187500.02, 0.00, 0.00, 0.00
8, 187500.00, 187500.00, 187500.00, 37441.47, -187500.02, -187500.02, -187500.02, -187500.02, -128.00, -224.00, 8736.00
9, 187500.00, 187500.00, 187500.00, 37436.64, -187500.02, -187500.02, -187500.02, -187500.02, 0.00, 0.00, 0.00
10, 187500.00, 187500.00, 187500.00, 37492.05, -187500.02, -187500.02, -187500.02, -187500.02, 0.00, 0.00, 0.00
11, 187500.00, 187500.00, 187500.00, 37507.48, -187500.02, -187500.02, -187500.02, -187500.02, 0.00, 0.00, 0.00
12, 187500.00, 187500.00, 187500.00, 37443.44, -187500.02, -187500.02, -187500.02, -187500.02, 0.00, 0.00, 0.00
13, 187500.00, 187500.00, 187500.00, 37430.63, -187500.02, -187500.02, -187500.02, -187500.02, 0.00, 0.00, 0.00
14, 187500.00, 187500.00, 187500.00, 37495.00, -187500.02, -187500.02, -187500.02, -187500.02, 0.00, 0.00, 0.00
15, 187500.00, 187500.00, 187500.00, 37519.19, -187500.02, -187500.02, -187500.02, -187500.02, 0.00, 0.00, 0.00
16, 187500.00, 187500.00, 187500.00, 37444.07, -187500.02, -187500.02, -187500.02, -187500.02, 0.00, 0.00, 0.00
17, 187500.00, 187500.00, 187500.00, 37415.25, -187500.02, -187500.02, -187500.02, -187500.02, 0.00, 0.00, 0.00
18, 187500.00, 187500.00, 187500.00, 37491.79, -187500.02, -187500.02, -187500.02, -187500.02, -96.00, -304.00, 8720.00
19, 187500.00, 187500.00, 187500.00, 37528.96, -187500.02, -187500.02, -187500.02, -187500.02, 0.00, 0.00, 0.00
20, 187500.00, 187500.00, 187500.00, 37479.38, -187500.02, -187500.02, -187500.02, -187500.02, 0.00, 0.00, 0.00
21, 187500.00, 187500.00, 187500.00, 37439.26, -187500.02, -187500.02, -187500.02, -187500.02, 0.00, 0.00, 0.00
22, 187500.00, 187500.00, 187500.00, 37472.65, -187500.02, -187500.02, -187500.02, -187500.02, 0.00, 0.00, 0.00
23, 187500.00, 187500.00, 187500.00, 37520.53, -187500.02, -187500.02, -187500.02, -187500.02, 0.00, 0.00, 0.00
24, 187500.00, 187500.00, 187500.00, 37481.73, -187500.02, -187500.02, -187500.02, -187500.02, 0.00, 0.00, 0.00
25, 187500.00, 187500.00, 187500.00, 37421.29, -187500.02, -187500.02, -187500.02, -187500.02, 0.00, 0.00, 0.00
26, 187500.00, 187500.00, 187500.00, 37443.93, -187500.02, -187500.02, -187500.02, -187500.02, 0.00, 0.00, 0.00
27, 187500.00, 187500.00, 187500.00, 37499.63, -187500.02, -187500.02, -187500.02, -187500.02, 0.00, 0.00, 0.00
28, 187500.00, 187500.00, 187500.00, 37479.36, -187500.02, -187500.02, -187500.02, -187500.02, -112.00, -240.00, 8656.00
29, 187500.00, 187500.00, 187500.00, 37405.40, -187500.02, -187500.02, -187500.02, -187500.02, 0.00, 0.00, 0.00
30, 187500.00, 187500.00, 187500.00, 37402.74, -187500.02, -187500.02, -187500.02, -187500.02, 0.00, 0.00, 0.00
31, 187500.00, 187500.00, 187500.00, 37458.86, -187500.02, -187500.02, -187500.02, -187500.02, 0.00, 0.00, 0.00
32, 187500.00, 187500.00, 187500.00, 37475.78, -187500.02, -187500.02, -187500.02, -187500.02, 0.00, 0.00, 0.00
33, 187500.00, 187500.00, 187500.00, 37426.12, -187500.02, -187500.02, -187500.02, -187500.02, 0.00, 0.00, 0.00
34, 187500.00, 187500.00, 187500.00, 37402.65, -187500.02, -187500.02, -187500.02, -187500.02, 0.00, 0.00, 0.00
35, 187500.00, 187500.00, 187500.00, 37458.93, -187500.02, -187500.02, -187500.02, -187500.02, 0.00, 0.00, 0.00
36, 187500.00, 187500.00, 187500.00, 37466.30, -187500.02, -187500.02, -187500.02, -187500.02, 0.00, 0.00, 0.00
37, 187500.00, 187500.00, 187500.00, 37398.18, -187500.02, -187500.02, -187500.02, -187500.02, 0.00, 0.00, 0.00
38, 187500.00, 187500.00, 187500.00, 37376.18, -187500.02, -187500.02, -187500.02, -187500.02, -144.00, -240.00, 8688.00
39, 187500.00, 187500.00, 187500.00, 37429.65, -187500.02, -187500.02, -187500.02, -187500.02, 0.00, 0.00, 0.00
40, 187500.00, 187500.00, 187500.00, 37458.24, -187500.02, -187500.02, -187500.02, -187500.02, 0.00, 0.00, 0.00
41, 187500.00, 187500.00, 187500.00, 37397.55, -187500.02, -187500.02, -187500.02, -187500.02, 0.00, 0.00, 0.00
42, 187500.00, 187500.00, 187500.00, 37354.28, -187500.02, -187500.02, -187500.02, -187500.02, 0.00, 0.00, 0.00
43, 187500.00, 187500.00, 187500.00, 37385.28, -187500.02, -187500.02, -187500.02, -187500.02, 0.00, 0.00, 0.00
44, 187500.00, 187500.00, 187500.00, 37408.53, -187500.02, -187500.02, -187500.02, -187500.02, 0.00, 0.00, 0.00
45, 187500.00, 187500.00, 187500.00, 37403.43, -187500.02, -187500.02, -187500.02, -187500.02, 0.00, 0.00, 0.00
46, 187500.00, 187500.00, 187500.00, 37341.79, -187500.02, -187500.02, -187500.02, -187500.02, 0.00, 0.00, 0.00
47, 187500.00, 187500.00, 187500.00, 37359.55, -187500.02, -187500.02, -187500.02, -187500.02, 0.00, 0.00, 0.00
48, 187500.00, 187500.00, 187500.00, 37436.06, -187500.02, -187500.02, -187500.02, -187500.02, -176.00, -224.00, 8704.00
49, 187500.00, 187500.00, 187500.00, 37409.51, -187500.02, -187500.02, -187500.02, -187500.02, 0.00, 0.00, 0.00
50, 187500.00, 187500.00, 187500.00, 37339.06, -187500.02, -187500.02, -187500.02, -187500.02, 0.00, 0.00, 0.00
51, 187500.00, 187500.00, 187500.00, 37340.27, -187500.02, -187500.02, -187500.02, -187500.02, 0.00, 0.00, 0.00
52, 187500.00, 187500.00, 187500.00, 37395.27, -187500.02, -187500.02, -187500.02, -187500.02, 0.00, 0.00, 0.00
53, 187500.00, 187500.00, 187500.00, 37392.66, -187500.02, -187500.02, -187500.02, -187500.02, 0.00, 0.00, 0.00
54, 187500.00, 187500.00, 187500.00, 37331.99, -187500.02, -187500.02, -187500.02, -187500.02, 0.00, 0.00, 0.00
55, 187500.00, 187500.00, 187500.00, 37336.75, -187500.02, -187500.02, -187500.02, -187500.02, 0.00, 0.00, 0.00
56, 187500.00, 187500.00, 187500.00, 37391.54, -187500.02, -187500.02, -187500.02, -187500.02, 0.00, 0.00, 0.00
57, 187500.00, 187500.00, 187500.00, 37395.76, -187500.02, -187500.02, -187500.02, -187500.02, 0.00, 0.00, 0.00
58, 187500.00, 187500.00, 187500.00, 37326.50, -187500.02, -187500.02, -187500.02, -187500.02, -176.00, -256.00, 8688.00
59, 187500.00, 187500.00, 187500.00, 37304.14, -187500.02, -187500.02, -187500.02, -187500.02, 0.00, 0.00, 0.00
60, 187500.00, 187500.00, 187500.00, 37360.80, -187500.02, -187500.02, -187500.02, -187500.02, 0.00, 0.00, 0.00
61, 187500.00, 187500.00, 187500.00, 37375.85, -187500.02, -187500.02, -187500.02, -187500.02, 0.00, 0.00, 0.00
62, 187500.00, 187500.00, 187500.00, 37317.15, -187500.02, -187500.02, -187500.02, -187500.02, 0.00, 0.00, 0.00
63, 187500.00, 187500.00, 187500.00, 37287.94, -187500.02, -187500.02, -187500.02, -187500.02, 0.00, 0.00, 0.00
64, 187500.00, 187500.00, 187500.00, 37347.35, -187500.02, -187500.02, -187500.02, -187500.02, 0.00, 0.00, 0.00
65, 187500.00, 187500.00, 187500.00, 37405.82, -187500.02, -187500.02, -187500.02, -187500.02, 0.00, 0.00, 0.00
66, 187500.00, 187500.00, 187500.00, 37349.81, -187500.02, -187500.02, -187500.02, -187500.02, 0.00, 0.00, 0.00
67, 187500.00, 187500.00, 187500.00, 37286.44, -187500.02, -187500.02, -187500.02, -187500.02, 0.00, 0.00, 0.00
68, 187500.00, 187500.00, 187500.00, 37334.79, -187500.02, -187500.02, -187500.02, -187500.02, -192.00, -240.00, 8672.00
69, 187500.00, 187500.00, 187500.00, 37389.64, -187500.02, -187500.02, -187500.02, -187500.02, 0.00, 0.00, 0.00
70, 187500.00, 187500.00, 187500.00, 37360.61, -187500.02, -187500.02, -187500.02, -187500.02, 0.00, 0.00, 0.00
71, 187500.00, 187500.00, 187500.00, 37304.08, -187500.02, -187500.02, -187500.02, -187500.02, 0.00, 0.00, 0.00
72, 187500.00, 187500.00, 187500.00, 37335.75, -187500.02, -187500.02, -187500.02, -187500.02, 0.00, 0.00, 0.00
73, 187500.00, 187500.00, 187500.00, 37389.75, -187500.02, -187500.02, -187500.02, -187500.02, 0.00, 0.00, 0.00
74, 187500.00, 187500.00, 187500.00, 37377.17, -187500.02, -187500.02, -187500.02, -187500.02, 0.00, 0.00, 0.00
75, 187500.00, 187500.00, 187500.00, 37329.63, -187500.02, -187500.02, -187500.02, -187500.02, 0.00, 0.00, 0.00
76, 187500.00, 187500.00, 187500.00, 37342.97, -187500.02, -187500.02, -187500.02, -187500.02, 0.00, 0.00, 0.00
77, 187500.00, 187500.00, 187500.00, 37385.14, -187500.02, -187500.02, -187500.02, -187500.02, 0.00, 0.00, 0.00
78, 187500.00, 187500.00, 187500.00, 37395.92, -187500.02, -187500.02, -187500.02, -187500.02, -144.00, -256.00, 8624.00
79, 187500.00, 187500.00, 187500.00, 37345.43, -187500.02, -187500.02, -187500.02, -187500.02, 0.00, 0.00, 0.00
80, 187500.00, 187500.00, 187500.00, 37322.07, -187500.02, -187500.02, -187500.02, -187500.02, 0.00, 0.00, 0.00
81, 187500.00, 187500.00, 187500.00, 37399.25, -187500.02, -187500.02, -187500.02, -187500.02, 0.00, 0.00, 0.00
82, 187500.00, 187500.00, 187500.00, 37418.36, -187500.02, -187500.02, -187500.02, -187500.02, 0.00, 0.00, 0.00
83, 187500.00, 187500.00, 187500.00, 37354.08, -187500.02, -187500.02, -187500.02, -187500.02, 0.00, 0.00, 0.00
84, 187500.00, 187500.00, 187500.00, 37340.40, -187500.02, -187500.02, -187500.02, -187500.02, 0.00, 0.00, 0.00
85, 187500.00, 187500.00, 187500.00, 37407.57, -187500.02, -187500.02, -187500.02, -187500.02, 0.00, 0.00, 0.00
86, 187500.00, 187500.00, 187500.00, 37421.09, -187500.02, -187500.02, -187500.02, -187500.02, 0.00, 0.00, 0.00
87, 187500.00, 187500.00, 187500.00, 37374.06, -187500.02, -187500.02, -187500.02, -187500.02, 0.00, 0.00, 0.00
88, 187500.00, 187500.00, 187500.00, 37346.90, -187500.02, -187500.02, -187500.02, -187500.02, -144.00, -240.00, 8624.00
89, 187500.00, 187500.00, 187500.00, 37391.32, -187500.02, -187500.02, -187500.02, -187500.02, 0.00, 0.00, 0.00
90, 187500.00, 187500.00, 187500.00, 37426.90, -187500.02, -187500.02, -187500.02, -187500.02, 0.00, 0.00, 0.00
91, 187500.00, 187500.00, 187500.00, 37389.28, -187500.02, -187500.02, -187500.02, -187500.02, 0.00, 0.00, 0.00
92, 187500.00, 187500.00, 187500.00, 37357.72, -187500.02, -187500.02, -187500.02, -187500.02, 0.00, 0.00, 0.00
93, 187500.00, 187500.00, 187500.00, 37385.13, -187500.02, -187500.02, -187500.02, -187500.02, 0.00, 0.00, 0.00
94, 187500.00, 187500.00, 187500.00, 37432.71, -187500.02, -187500.02, -187500.02, -187500.02, 0.00, 0.00, 0.00
95, 187500.00, 187500.00, 187500.00, 37406.11, -187500.02, -187500.02, -187500.02, -187500.02, 0.00, 0.00, 0.00
96, 187500.00, 187500.00, 187500.00, 37361.30, -187500.02, -187500.02, -187500.02, -187500.02, 0.00, 0.00, 0.00
97, 187500.00, 187500.00, 187500.00, 37378.82, -187500.02, -187500.02, -187500.02, -187500.02, 0.00, 0.00, 0.00
98, 187500.00, 187500.00, 187500.00, 37442.61, -187500.02, -187500.02, -187500.02, -187500.02, -160.00, -256.00, 8688.00
99, 187500.00, 187500.00, 187500.00, 37438.05, -187500.02, -187500.02, -187500.02, -187500.02, 0.00, 0.00, 0.00
100, 187500.00, 187500.00, 187500.00, 37367.18, -187500.02, -187500.02, -187500.02, -187500.02, 0.00, 0.00, 0.00
101, 187500.00, 187500.00, 187500.00, 37372.61, -187500.02, -187500.02, -187500.02, -187500.02, 0.00, 0.00, 0.00
102, 187500.00, 187500.00, 187500.00, 37436.73, -187500.02, -187500.02, -187500.02, -187500.02, 0.00, 0.00, 0.00
103, 187500.00, 187500.00, 187500.00, 37417.33, -187500.02, -187500.02, -187500.02, -187500.02, 0.00, 0.00, 0.00
104, 187500.00, 187500.00, 187500.00, 37387.89, -187500.02, -187500.02, -187500.02, -187500.02, 0.00, 0.00, 0.00
105, 187500.00, 187500.00, 187500.00, 37399.77, -187500.02, -187500.02, -187500.02, -187500.02, 0.00, 0.00, 0.00
106, 187500.00, 187500.00, 187500.00, 37451.38, -187500.02, -187500.02, -187500.02, -187500.02, 0.00, 0.00, 0.00
107, 187500.00, 187500.00, 187500.00, 37461.54, -187500.02, -187500.02, -187500.02, -187500.02, 0.00, 0.00, 0.00
108, 187500.00, 187500.00, 187500.00, 37382.46, -187500.02, -187500.02, -187500.02, -187500.02, 0.00, 0.00, 0.00
109, 187500.00, 187500.00, 187500.00, 37363.82, -187500.02, -187500.02, -187500.02, -187500.02, -144.00, -288.00, 8736.00
110, 187500.00, 187500.00, 187500.00, 37438.75, -187500.02, -187500.02, -187500.02, -187500.02, 0.00, 0.00, 0.00
111, 187500.00, 187500.00, 187500.00, 37476.48, -187500.02, -187500.02, -187500.02, -187500.02, 0.00, 0.00, 0.00
112, 187500.00, 187500.00, 187500.00, 37412.97, -187500.02, -187500.02, -187500.02, -187500.02, 0.00, 0.00, 0.00
113, 187500.00, 187500.00, 187500.00, 37370.19, -187500.02, -187500.02, -187500.02, -187500.02, 0.00, 0.00, 0.00
114, 187500.00, 187500.00, 187500.00, 37433.32, -187500.02, -187500.02, -187500.02, -187500.02, 0.00, 0.00, 0.00
115, 187500.00, 187500.00, 187500.00, 37467.73, -187500.02, -187500.02, -187500.02, -187500.02, 0.00, 0.00, 0.00
116, 187500.00, 187500.00, 187500.00, 37422.18, -187500.02, -187500.02, -187500.02, -187500.02, 0.00, 0.00, 0.00
117, 187500.00, 187500.00, 187500.00, 37380.70, -187500.02, -187500.02, -187500.02, -187500.02, 0.00, 0.00, 0.00
118, 187500.00, 187500.00, 187500.00, 37443.66, -187500.02, -187500.02, -187500.02, -187500.02, 0.00, 0.00, 0.00
119, 187500.00, 187500.00, 187500.00, 37509.98, -187500.02, -187500.02, -187500.02, -187500.02, -128.00, -272.00, 8672.00
120, 187500.00, 187500.00, 187500.00, 37467.73, -187500.02, -187500.02, -187500.02, -187500.02, 0.00, 0.00, 0.00
121, 187500.00, 187500.00, 187500.00, 37412.08, -187500.02, -187500.02, -187500.02, -187500.02, 0.00, 0.00, 0.00
122, 187500.00, 187500.00, 187500.00, 37447.38, -187500.02, -187500.02, -187500.02, -187500.02, 0.00, 0.00, 0.00
123, 187500.00, 187500.00, 187500.00, 37500.44, -187500.02, -187500.02, -187500.02, -187500.02, 0.00, 0.00, 0.00
124, 187500.00, 187500.00, 187500.00, 37480.28, -187500.02, -187500.02, -187500.02, -187500.02, 0.00, 0.00, 0.00
125, 187500.00, 187500.00, 187500.00, 37403.25, -187500.02, -187500.02, -187500.02, -187500.02, 0.00, 0.00, 0.00
126, 187500.00, 187500.00, 187500.00, 37426.70, -187500.02, -187500.02, -187500.02, -187500.02, 0.00, 0.00, 0.00
127, 187500.00, 187500.00, 187500.00, 37490.13, -187500.02, -187500.02, -187500.02, -187500.02, 0.00, 0.00, 0.00
128, 187500.00, 187500.00, 187500.00, 37501.80, -187500.02, -187500.02, -187500.02, -187500.02, 0.00, 0.00, 0.00
129, 187500.00, 187500.00, 187500.00, 37431.17, -187500.02, -187500.02, -187500.02, -187500.02, -144.00, -288.00, 8656.00
130, 187500.00, 187500.00, 187500.00, 37415.99, -187500.02, -187500.02, -187500.02, -187500.02, 0.00, 0.00, 0.00
131, 187500.00, 187500.00, 187500.00, 37487.65, -187500.02, -187500.02, -187500.02, -187500.02, 0.00, 0.00, 0.00
132, 187500.00, 187500.00, 187500.00, 37507.54, -187500.02, -187500.02, -187500.02, -187500.02, 0.00, 0.00, 0.00
133, 187500.00, 187500.00, 187500.00, 37458.75, -187500.02, -187500.02, -187500.02, -187500.02, 0.00, 0.00, 0.00
134, 187500.00, 187500.00, 187500.00, 37435.50, -187500.02, -187500.02, -187500.02, -187500.02, 0.00, 0.00, 0.00
135, 187500.00, 187500.00, 187500.00, 37489.21, -187500.02, -187500.02, -187500.02, -187500.02, 0.00, 0.00, 0.00
136, 187500.00, 187500.00, 187500.00, 37518.45, -187500.02, -187500.02, -187500.02, -187500.02, 0.00, 0.00, 0.00
137, 187500.00, 187500.00, 187500.00, 37471.98, -187500.02, -187500.02, -187500.02, -187500.02, 0.00, 0.00, 0.00
138, 187500.00, 187500.00, 187500.00, 37433.89, -187500.02, -187500.02, -187500.02, -187500.02, 0.00, 0.00, 0.00
139, 187500.00, 187500.00, 187500.00, 37465.86, -187500.02, -187500.02, -187500.02, -187500.02, -144.00, -320.00, 8736.00
140, 187500.00, 187500.00, 187500.00, 37505.53, -187500.02, -187500.02, -187500.02, -187500.02, 0.00, 0.00, 0.00
141, 187500.00, 187500.00, 187500.00, 37470.93, -187500.02, -187500.02, -187500.02, -187500.02, 0.00, 0.00, 0.00
142, 187500.00, 187500.00, 187500.00, 37426.90, -187500.02, -187500.02, -187500.02, -187500.02, 0.00, 0.00, 0.00
143, 187500.00, 187500.00, 187500.00, 37452.11, -187500.02, -187500.02, -187500.02, -187500.02, 0.00, 0.00, 0.00
144, 187500.00, 187500.00, 187500.00, 37502.56, -187500.02, -187500.02, -187500.02, -187500.02, 0.00, 0.00, 0.00
145, 187500.00, 187500.00, 187500.00, 37478.46, -187500.02, -187500.02, -187500.02, -187500.02, 0.00, 0.00, 0.00
146, 187500.00, 187500.00, 187500.00, 37409.67, -187500.02, -187500.02, -187500.02, -187500.02, 0.00, 0.00, 0.00
147, 187500.00, 187500.00, 187500.00, 37404.82, -187500.02, -187500.02, -187500.02, -187500.02, 0.00, 0.00, 0.00
148, 187500.00, 187500.00, 187500.00, 37490.76, -187500.02, -187500.02, -187500.02, -187500.02, 0.00, 0.00, 0.00
149, 187500.00, 187500.00, 187500.00, 37512.11, -187500.02, -187500.02, -187500.02, -187500.02, -144.00, -288.00, 8768.00
150, 187500.00, 187500.00, 187500.00, 37419.79, -187500.02, -187500.02, -187500.02, -187500.02, 0.00, 0.00, 0.00
151, 187500.00, 187500.00, 187500.00, 37427.28, -187500.02, -187500.02, -187500.02, -187500.02, 0.00, 0.00, 0.00
152, 187500.00, 187500.00, 187500.00, 37492.39, -187500.02, -187500.02, -187500.02, -187500.02, 0.00, 0.00, 0.00
153, 187500.00, 187500.00, 187500.00, 37467.96, -187500.02, -187500.02, -187500.02, -187500.02, 0.00, 0.00, 0.00
154, 187500.00, 187500.00, 187500.00, 37416.11, -187500.02, -187500.02, -187500.02, -187500.02, 0.00, 0.00, 0.00
155, 187500.00, 187500.00, 187500.00, 37411.01, -187500.02, -187500.02, -187500.02, -187500.02, 0.00, 0.00, 0.00
156, 187500.00, 187500.00, 187500.00, 37460.18, -187500.02, -187500.02, -187500.02, -187500.02, 0.00, 0.00, 0.00
157, 187500.00, 187500.00, 187500.00, 37475.65, -187500.02, -187500.02, -187500.02, -187500.02, 0.00, 0.00, 0.00
158, 187500.00, 187500.00, 187500.00, 37408.93, -187500.02, -187500.02, -187500.02, -187500.02, 0.00, 0.00, 0.00
159, 187500.00, 187500.00, 187500.00, 37354.21, -187500.02, -187500.02, -187500.02, -187500.02, -144.00, -272.00, 8736.00
160, 187500.00, 187500.00, 187500.00, 37453.59, -187500.02, -187500.02, -187500.02, -187500.02, 0.00, 0.00, 0.00
161, 187500.00, 187500.00, 187500.00, 37488.77, -187500.02, -187500.02, -187500.02, -187500.02, 0.00, 0.00, 0.00
162, 187500.00, 187500.00, 187500.00, 37427.10, -187500.02, -187500.02, -187500.02, -187500.02, 0.00, 0.00, 0.00
163, 187500.00, 187500.00, 187500.00, 37394.36, -187500.02, -187500.02, -187500.02, -187500.02, 0.00, 0.00, 0.00
164, 187500.00, 187500.00, 187500.00, 37412.30, -187500.02, -187500.02, -187500.02, -187500.02, 0.00, 0.00, 0.00
165, 187500.00, 187500.00, 187500.00, 37456.18, -187500.02, -187500.02, -187500.02, -187500.02, 0.00, 0.00, 0.00
166, 187500.00, 187500.00, 187500.00, 37427.82, -187500.02, -187500.02, -187500.02, -187500.02, 0.00, 0.00, 0.00
167, 187500.00, 187500.00, 187500.00, 37369.05, -187500.02, -187500.02, -187500.02, -187500.02, 0.00, 0.00, 0.00
168, 187500.00, 187500.00, 187500.00, 37408.48, -187500.02, -187500.02, -187500.02, -187500.02, 0.00, 0.00, 0.00
169, 187500.00, 187500.00, 187500.00, 37444.91, -187500.02, -187500.02, -187500.02, -187500.02, -160.00, -240.00, 8736.00
170, 187500.00, 187500.00, 187500.00, 37411.81, -187500.02, -187500.02, -187500.02, -187500.02, 0.00, 0.00, 0.00
171, 187500.00, 187500.00, 187500.00, 37340.13, -187500.02, -187500.02, -187500.02, -187500.02, 0.00, 0.00, 0.00
172, 187500.00, 187500.00, 187500.00, 37369.57, -187500.02, -187500.02, -187500.02, -187500.02, 0.00, 0.00, 0.00
173, 187500.00, 187500.00, 187500.00, 37433.40, -187500.02, -187500.02, -187500.02, -187500.02, 0.00, 0.00, 0.00
174, 187500.00, 187500.00, 187500.00, 37415.84, -187500.02, -187500.02, -187500.02, -187500.02, 0.00, 0.00, 0.00
175, 187500.00, 187500.00, 187500.00, 37369.16, -187500.02, -187500.02, -187500.02, -187500.02, 0.00, 0.00, 0.00
176, 187500.00, 187500.00, 187500.00, 37363.04, -187500.02, -187500.02, -187500.02, -187500.02, 0.00, 0.00, 0.00
177, 187500.00, 187500.00, 187500.00, 37410.02, -187500.02, -187500.02, -187500.02, -187500.02, 0.00, 0.00, 0.00
178, 187500.00, 187500.00, 187500.00, 37415.32, -187500.02, -187500.02, -187500.02, -187500.02, 0.00, 0.00, 0.00
179, 187500.00, 187500.00, 187500.00, 37337.40, -187500.02, -187500.02, -187500.02, -187500.02, -176.00, -224.00, 8688.00
180, 187500.00, 187500.00, 187500.00, 37338.45, -187500.02, -187500.02, -187500.02, -187500.02, 0.00, 0.00, 0.00
181, 187500.00, 187500.00, 187500.00, 37406.78, -187500.02, -187500.02, -187500.02, -187500.02, 0.00, 0.00, 0.00
182, 187500.00, 187500.00, 187500.00, 37414.65, -187500.02, -187500.02, -187500.02, -187500.02, 0.00, 0.00, 0.00
183, 187500.00, 187500.00, 187500.00, 37349.65, -187500.02, -187500.02, -187500.02, -187500.02, 0.00, 0.00, 0.00
184, 187500.00, 187500.00, 187500.00, 37319.88, -187500.02, -187500.02, -187500.02, -187500.02, 0.00, 0.00, 0.00
185, 187500.00, 187500.00, 187500.00, 37373.21, -187500.02, -187500.02, -187500.02, -187500.02, 0.00, 0.00, 0.00
186, 187500.00, 187500.00, 187500.00, 37414.76, -187500.02, -187500.02, -187500.02, -187500.02, 0.00, 0.00, 0.00
187, 187500.00, 187500.00, 187500.00, 37372.47, -187500.02, -187500.02, -187500.02, -187500.02, 0.00, 0.00, 0.00
188, 187500.00, 187500.00, 187500.00, 37327.21, -187500.02, -187500.02, -187500.02, -187500.02, 0.00, 0.00, 0.00
189, 187500.00, 187500.00, 187500.00, 37384.95, -187500.02, -187500.02, -187500.02, -187500.02, -144.00, -224.00, 8720.00
190, 187500.00, 187500.00, 187500.00, 37428.42, -187500.02, -187500.02, -187500.02, -187500.02, 0.00, 0.00, 0.00
191, 187500.00, 187500.00, 187500.00, 37373.46, -187500.02, -187500.02, -187500.02, -187500.02, 0.00, 0.00, 0.00
192, 187500.00, 187500.00, 187500.00, 37298.27, -187500.02, -187500.02, -187500.02, -187500.02, 0.00, 0.00, 0.00
193, 187500.00, 187500.00, 187500.00, 37346.50, -187500.02, -187500.02, -187500.02, -187500.02, 0.00, 0.00, 0.00
194, 187500.00, 187500.00, 187500.00, 37435.41, -187500.02, -187500.02, -187500.02, -187500.02, 0.00, 0.00, 0.00
195, 187500.00, 187500.00, 187500.00, 37390.64, -187500.02, -187500.02, -187500.02, -187500.02, 0.00, 0.00, 0.00
196, 187500.00, 187500.00, 187500.00, 37343.53, -187500.02, -187500.02, -187500.02, -187500.02, 0.00, 0.00, 0.00
197, 187500.00, 187500.00, 187500.00, 37451.09, -187500.02, -187500.02, -187500.02, -187500.02, 0.00, 0.00, 0.00
198, 187500.00, 187500.00, 187500.00, 37529.70, -187500.02, -187500.02, -187500.02, -187500.02, 0.00, 0.00, 0.00
199, 187500.00, 187500.00, 187500.00, 37416.59, -187500.02, -187500.02, -187500.02, -187500.02, -144.00, -208.00, 8656.00
200, 187500.00, 187500.00, 187500.00, 37350.01, -187500.02, -187500.02, -187500.02, -187500.02, 0.00, 0.00, 0.00
201, 187500.00, 187500.00, 187500.00, 37340.93, -187500.02, -187500.02, -187500.02, -187500.02, 0.00, 0.00, 0.00
202, 187500.00, 187500.00, 187500.00, 37401.11, -187500.02, -187500.02, -187500.02, -187500.02, 0.00, 0.00, 0.00
203, 187500.00, 187500.00, 187500.00, 37413.49, -187500.02, -187500.02, -187500.02, -187500.02, 0.00, 0.00, 0.00
204, 187500.00, 187500.00, 187500.00, 37343.01, -187500.02, -187500.02, -187500.02, -187500.02, 0.00, 0.00, 0.00
205, 187500.00, 187500.00, 187500.00, 37331.35, -187500.02, -187500.02, -187500.02, -187500.02, 0.00, 0.00, 0.00
206, 187500.00, 187500.00, 187500.00, 37409.98, -187500.02, -187500.02, -187500.02, -187500.02, 0.00, 0.00, 0.00
207, 187500.00, 187500.00, 187500.00, 37428.57, -187500.02, -187500.02, -187500.02, -187500.02, 0.00, 0.00, 0.00
208, 187500.00, 187500.00, 187500.00, 37372.79, -187500.02, -187500.02, -187500.02, -187500.02, 0.00, 0.00, 0.00
209, 187500.00, 187500.00, 187500.00, 37345.50, -187500.02, -187500.02, -187500.02, -187500.02, -176.00, -192.00, 8688.00
210, 187500.00, 187500.00, 187500.00, 37401.95, -187500.02, -187500.02, -187500.02, -187500.02, 0.00, 0.00, 0.00
211, 187500.00, 187500.00, 187500.00, 37432.04, -187500.02, -187500.02, -187500.02, -187500.02, 0.00, 0.00, 0.00
212, 187500.00, 187500.00, 187500.00, 37383.80, -187500.02, -187500.02, -187500.02, -187500.02, 0.00, 0.00, 0.00
213, 187500.00, 187500.00, 187500.00, 37352.85, -187500.02, -187500.02, -187500.02, -187500.02, 0.00, 0.00, 0.00
214, 187500.00, 187500.00, 187500.00, 37382.44, -187500.02, -187500.02, -187500.02, -187500.02, 0.00, 0.00, 0.00
215, 187500.00, 187500.00, 187500.00, 37438.19, -187500.02, -187500.02, -187500.02, -187500.02, 0.00, 0.00, 0.00
216, 187500.00, 187500.00, 187500.00, 37395.83, -187500.02, -187500.02, -187500.02, -187500.02, 0.00, 0.00, 0.00
217, 187500.00, 187500.00, 187500.00, 37352.94, -187500.02, -187500.02, -187500.02, -187500.02, 0.00, 0.00, 0.00
218, 187500.00, 187500.00, 187500.00, 37387.92, -187500.02, -187500.02, -187500.02, -187500.02, 0.00, 0.00, 0.00
219, 187500.00, 187500.00, 187500.00, 37452.98, -187500.02, -187500.02, -187500.02, -187500.02, -160.00, -208.00, 8704.00
220, 187500.00, 187500.00, 187500.00, 37430.83, -187500.02, -187500.02, -187500.02, -187500.02, 0.00, 0.00, 0.00
221, 187500.00, 187500.00, 187500.00, 37356.27, -187500.02, -187500.02, -187500.02, -187500.02, 0.00, 0.00, 0.00
222, 187500.00, 187500.00, 187500.00, 37374.15, -187500.02, -187500.02, -187500.02, -187500.02, 0.00, 0.00, 0.00
223, 187500.00, 187500.00, 187500.00, 37433.29, -187500.02, -187500.02, -187500.02, -187500.02, 0.00, 0.00, 0.00
224, 187500.00, 187500.00, 187500.00, 37428.06, -187500.02, -187500.02, -187500.02, -187500.02, 0.00, 0.00, 0.00
225, 187500.00, 187500.00, 187500.00, 37373.41, -187500.02, -187500.02, -187500.02, -187500.02, 0.00, 0.00, 0.00
226, 187500.00, 187500.00, 187500.00, 37367.29, -187500.02, -187500.02, -187500.02, -187500.02, 0.00, 0.00, 0.00
227, 187500.00, 187500.00, 187500.00, 37424.08, -187500.02, -187500.02, -187500.02, -187500.02, 0.00, 0.00, 0.00
228, 187500.00, 187500.00, 187500.00, 37445.16, -187500.02, -187500.02, -187500.02, -187500.02, 0.00, 0.00, 0.00
229, 187500.00, 187500.00, 187500.00, 37373.88, -187500.02, -187500.02, -187500.02, -187500.02, -144.00, -256.00, 8704.00
230, 187500.00, 187500.00, 187500.00, 37357.99, -187500.02, -187500.02, -187500.02, -187500.02, 0.00, 0.00, 0.00
231, 187500.00, 187500.00, 187500.00, 37412.80, -187500.02, -187500.02, -187500.02, -187500.02, 0.00, 0.00, 0.00
232, 187500.00, 187500.00, 187500.00, 37452.34, -187500.02, -187500.02, -187500.02, -187500.02, 0.00, 0.00, 0.00
233, 187500.00, 187500.00, 187500.00, 37416.91, -187500.02, -187500.02, -187500.02, -187500.02, 0.00, 0.00, 0.00
234, 187500.00, 187500.00, 187500.00, 37389.08, -187500.02, -187500.02, -187500.02, -187500.02, 0.00, 0.00, 0.00
235, 187500.00, 187500.00, 187500.00, 37430.54, -187500.02, -187500.02, -187500.02, -187500.02, 0.00, 0.00, 0.00
236, 187500.00, 187500.00, 187500.00, 37476.43, -187500.02, -187500.02, -187500.02, -187500.02, 0.00, 0.00, 0.00
237, 187500.00, 187500.00, 187500.00, 37423.84, -187500.02, -187500.02, -187500.02, -187500.02, 0.00, 0.00, 0.00
238, 187500.00, 187500.00, 187500.00, 37374.60, -187500.02, -187500.02, -187500.02, -187500.02, 0.00, 0.00, 0.00
239, 187500.00, 187500.00, 187500.00, 37416.75, -187500.02, -187500.02, -187500.02, -187500.02, -96.00, -224.00, 8704.00
240, 187500.00, 187500.00, 187500.00, 37476.59, -187500.02, -187500.02, -187500.02, -187500.02, 0.00, 0.00, 0.00
241, 187500.00, 187500.00, 187500.00, 37440.27, -187500.02, -187500.02, -187500.02, -187500.02, 0.00, 0.00, 0.00
242, 187500.00, 187500.00, 187500.00, 37384.32, -187500.02, -187500.02, -187500.02, -187500.02, 0.00, 0.00, 0.00
243, 187500.00, 187500.00, 187500.00, 37422.81, -187500.02, -187500.02, -187500.02, -187500.02, 0.00, 0.00, 0.00
244, 187500.00, 187500.00, 187500.00, 37473.55, -187500.02, -187500.02, -187500.02, -187500.02, 0.00, 0.00, 0.00
245, 187500.00, 187500.00, 187500.00, 37442.93, -187500.02, -187500.02, -187500.02, -187500.02, 0.00, 0.00, 0.00
246, 187500.00, 187500.00, 187500.00, 37399.59, -187500.02, -187500.02, -187500.02, -187500.02, 0.00, 0.00, 0.00
247, 187500.00, 187500.00, 187500.00, 37428.35, -187500.02, -187500.02, -187500.02, -187500.02, 0.00, 0.00, 0.00
248, 187500.00, 187500.00, 187500.00, 37472.95, -187500.02, -187500.02, -187500.02, -187500.02, 0.00, 0.00, 0.00
249, 187500.00, 187500.00, 187500.00, 37491.99, -187500.02, -187500.02, -187500.02, -187500.02, -160.00, -272.00, 8656.00
250, 187500.00, 187500.00, 187500.00, 37422.38, -187500.02, -187500.02, -187500.02, -187500.02, 0.00, 0.00, 0.00
251, 187500.00, 187500.00, 187500.00, 37414.90, -187500.02, -187500.02, -187500.02, -187500.02, 0.00, 0.00, 0.00
252, 187500.00, 187500.00, 187500.00, 37478.55, -187500.02, -187500.02, -187500.02, -187500.02, 0.00, 0.00, 0.00
253, 187500.00, 187500.00, 187500.00, 37507.21, -187500.02, -187500.02, -187500.02, -187500.02, 0.00, 0.00, 0.00
254, 187500.00, 187500.00, 187500.00, 37438.72, -187500.02, -187500.02, -187500.02, -187500.02, 0.00, 0.00, 0.00
255, 187500.00, 187500.00, 187500.00, 37407.90, -187500.02, -187500.02, -187500.02, -187500.02, 0.00, 0.00, 0.00
0, 187500.00, 187500.00, 187500.00, 37486.02, -187500.02, -187500.02, -187500.02, -187500.02, 0.00, 0.00, 0.00
1, 187500.00, 187500.00, 187500.00, 37513.33, -187500.02, -187500.02, -187500.02, -187500.02, 0.00, 0.00, 0.00
2, 187500.00, 187500.00, 187500.00, 37458.89, -187500.02, -187500.02, -187500.02, -187500.02, 0.00, 0.00, 0.00
3, 187500.00, 187500.00, 187500.00, 37417.85, -187500.02, -187500.02, -187500.02, -187500.02, -160.00, -256.00, 8640.00
4, 187500.00, 187500.00, 187500.00, 37471.87, -187500.02, -187500.02, -187500.02, -187500.02, 0.00, 0.00, 0.00
5, 187500.00, 187500.00, 187500.00, 37517.54, -187500.02, -187500.02, -187500.02, -187500.02, 0.00, 0.00, 0.00
6, 187500.00, 187500.00, 187500.00, 37470.42, -187500.02, -187500.02, -187500.02, -187500.02, 0.00, 0.00, 0.00
7, 187500.00, 187500.00, 187500.00, 37420.24, -187500.02, -187500.02, -187500.02, -187500.02, 0.00, 0.00, 0.00
8, 187500.00, 187500.00, 187500.00, 37454.50, -187500.02, -187500.02, -187500.02, -187500.02, 0.00, 0.00, 0.00
9, 187500.00, 187500.00, 187500.00, 37506.65, -187500.02, -187500.02, -187500.02, -187500.02, 0.00, 0.00, 0.00
10, 187500.00, 187500.00, 187500.00, 37473.23, -187500.02, -187500.02, -187500.02, -187500.02, 0.00, 0.00, 0.00
11, 187500.00, 187500.00, 187500.00, 37429.07, -187500.02, -187500.02, -187500.02, -187500.02, 0.00, 0.00, 0.00
12, 187500.00, 187500.00, 187500.00, 37428.51, -187500.02, -187500.02, -187500.02, -187500.02, 0.00, 0.00, 0.00
13, 187500.00, 187500.00, 187500.00, 37480.36, -187500.02, -187500.02, -187500.02, -187500.02, 0.00, 0.00, 0.00
14, 187500.00, 187500.00, 187500.00, 37486.94, -187500.02, -187500.02, -187500.02, -187500.02, -192.00, -320.00, 8672.00
15, 187500.00, 187500.00, 187500.00, 37416.17, -187500.02, -187500.02, -187500.02, -187500.02, 0.00, 0.00, 0.00
16, 187500.00, 187500.00, 187500.00, 37411.19, -187500.02, -187500.02, -187500.02, -187500.02, 0.00, 0.00, 0.00
17, 187500.00, 187500.00, 187500.00, 37496.82, -187500.02, -187500.02, -187500.02, -187500.02, 0.00, 0.00, 0.00
18, 187500.00, 187500.00, 187500.00, 37492.61, -187500.02, -187500.02, -187500.02, -187500.02, 0.00, 0.00, 0.00
19, 187500.00, 187500.00, 187500.00, 37420.20, -187500.02, -187500.02, -187500.02, -187500.02, 0.00, 0.00, 0.00
20, 187500.00, 187500.00, 187500.00, 37419.99, -187500.02, -187500.02, -187500.02, -187500.02, 0.00, 0.00, 0.00
21, 187500.00, 187500.00, 187500.00, 37476.32, -187500.02, -187500.02, -187500.02, -187500.02, 0.00, 0.00, 0.00
22, 187500.00, 187500.00, 187500.00, 37482.73, -187500.02, -187500.02, -187500.02, -187500.02, 0.00, 0.00, 0.00
23, 187500.00, 187500.00, 187500.00, 37413.42, -187500.02, -187500.02, -187500.02, -187500.02, 0.00, 0.00, 0.00
24, 187500.00, 187500.00, 187500.00, 37382.80, -187500.02, -187500.02, -187500.02, -187500.02, -176.00, -288.00, 8592.00
25, 187500.00, 187500.00, 187500.00, 37446.70, -187500.02, -187500.02, -187500.02, -187500.02, 0.00, 0.00, 0.00
26, 187500.00, 187500.00, 187500.00, 37481.82, -187500.02, -187500.02, -187500.02, -187500.02, 0.00, 0.00, 0.00
27, 187500.00, 187500.00, 187500.00, 37423.52, -187500.02, -187500.02, -187500.02, -187500.02, 0.00, 0.00, 0.00
28, 187500.00, 187500.00, 187500.00, 37385.73, -187500.02, -187500.02, -187500.02, -187500.02, 0.00, 0.00, 0.00
29, 187500.00, 187500.00, 187500.00, 37426.07, -187500.02, -187500.02, -187500.02, -187500.02, 0.00, 0.00, 0.00
30, 187500.00, 187500.00, 187500.00, 37474.42, -187500.02, -187500.02, -187500.02, -187500.02, 0.00, 0.00, 0.00
31, 187500.00, 187500.00, 187500.00, 37429.56, -187500.02, -187500.02, -187500.02, -187500.02, 0.00, 0.00, 0.00
32, 187500.00, 187500.00, 187500.00, 37360.36, -187500.02, -187500.02, -187500.02, -187500.02, 0.00, 0.00, 0.00
33, 187500.00, 187500.00, 187500.00, 37391.38, -187500.02, -187500.02, -187500.02, -187500.02, 0.00, 0.00, 0.00
34, 187500.00, 187500.00, 187500.00, 37445.03, -187500.02, -187500.02, -187500.02, -187500.02, -176.00, -272.00, 8656.00
35, 187500.00, 187500.00, 187500.00, 37425.07, -187500.02, -187500.02, -187500.02, -187500.02, 0.00, 0.00, 0.00
36, 187500.00, 187500.00, 187500.00, 37376.59, -187500.02, -187500.02, -187500.02, -187500.02, 0.00, 0.00, 0.00
37, 187500.00, 187500.00, 187500.00, 37402.45, -187500.02, -187500.02, -187500.02, -187500.02, 0.00, 0.00, 0.00
38, 187500.00, 187500.00, 187500.00, 37459.62, -187500.02, -187500.02, -187500.02, -187500.02, 0.00, 0.00, 0.00
39, 187500.00, 187500.00, 187500.00, 37426.81, -187500.02, -187500.02, -187500.02, -187500.02, 0.00, 0.00, 0.00
40, 187500.00, 187500.00, 187500.00, 37362.68, -187500.02, -187500.02, -187500.02, -187500.02, 0.00, 0.00, 0.00
41, 187500.00, 187500.00, 187500.00, 37398.78, -187500.02, -187500.02, -187500.02, -187500.02, 0.00, 0.00, 0.00
42, 187500.00, 187500.00, 187500.00, 37449.74, -187500.02, -187500.02, -187500.02, -187500.02, 0.00, 0.00, 0.00
43, 187500.00, 187500.00, 187500.00, 37449.92, -187500.02, -187500.02, -187500.02, -187500.02, 0.00, 0.00, 0.00
44, 187500.00, 187500.00, 187500.00, 37386.27, -187500.02, -187500.02, -187500.02, -187500.02, -128.00, -272.00, 8672.00
45, 187500.00, 187500.00, 187500.00, 37359.66, -187500.02, -187500.02, -187500.02, -187500.02, 0.00, 0.00, 0.00
46, 187500.00, 187500.00, 187500.00, 37419.46, -187500.02, -187500.02, -187500.02, -187500.02, 0.00, 0.00, 0.00
47, 187500.00, 187500.00, 187500.00, 37431.01, -187500.02, -187500.02, -187500.02, -187500.02, 0.00, 0.00, 0.00
48, 187500.00, 187500.00, 187500.00, 37370.80, -187500.02, -187500.02, -187500.02, -187500.02, 0.00, 0.00, 0.00
49, 187500.00, 187500.00, 187500.00, 37348.00, -187500.02, -187500.02, -187500.02, -187500.02, 0.00, 0.00, 0.00
50, 187500.00, 187500.00, 187500.00, 37400.46, -187500.02, -187500.02, -187500.02, -187500.02, 0.00, 0.00, 0.00
51, 187500.00, 187500.00, 187500.00, 37452.76, -187500.02, -187500.02, -187500.02, -187500.02, 0.00, 0.00, 0.00
52, 187500.00, 187500.00, 187500.00, 37394.31, -187500.02, -187500.02, -187500.02, -187500.02, 0.00, 0.00, 0.00
53, 187500.00, 187500.00, 187500.00, 37343.95, -187500.02, -187500.02, -187500.02, -187500.02, 0.00, 0.00, 0.00
54, 187500.00, 187500.00, 187500.00, 37402.13, -187500.02, -187500.02, -187500.02, -187500.02, -128.00, -192.00, 8656.00
55, 187500.00, 187500.00, 187500.00, 37447.51, -187500.02, -187500.02, -187500.02, -187500.02, 0.00, 0.00, 0.00
56, 187500.00, 187500.00, 187500.00, 37411.12, -187500.02, -187500.02, -187500.02, -187500.02, 0.00, 0.00, 0.00
57, 187500.00, 187500.00, 187500.00, 37353.77, -187500.02, -187500.02, -187500.02, -187500.02, 0.00, 0.00, 0.00
58, 187500.00, 187500.00, 187500.00, 37377.21, -187500.02, -187500.02, -187500.02, -187500.02, 0.00, 0.00, 0.00
59, 187500.00, 187500.00, 187500.00, 37438.86, -187500.02, -187500.02, -187500.02, -187500.02, 0.00, 0.00, 0.00
60, 187500.00, 187500.00, 187500.00, 37409.51, -187500.02, -187500.02, -187500.02, -187500.02, 0.00, 0.00, 0.00
61, 187500.00, 187500.00, 187500.00, 37361.59, -187500.02, -187500.02, -187500.02, -187500.02, 0.00, 0.00, 0.00
62, 187500.00, 187500.00, 187500.00, 37367.38, -187500.02, -187500.02, -187500.02, -187500.02, 0.00, 0.00, 0.00
63, 187500.00, 187500.00, 187500.00, 37431.26, -187500.02, -187500.02, -187500.02, -187500.02, 0.00, 0.00, 0.00
64, 187500.00, 187500.00, 187500.00, 37435.17, -187500.02, -187500.02, -187500.02, -187500.02, -112.00, -208.00, 8704.00
65, 187500.00, 187500.00, 187500.00, 37375.87, -187500.02, -187500.02, -187500.02, -187500.02, 0.00, 0.00, 0.00
66, 187500.00, 187500.00, 187500.00, 37350.39, -187500.02, -187500.02, -187500.02, -187500.02, 0.00, 0.00, 0.00
67, 187500.00, 187500.00, 187500.00, 37422.05, -187500.02, -187500.02, -187500.02, -187500.02, 0.00, 0.00, 0.00
68, 187500.00, 187500.00, 187500.00, 37469.95, -187500.02, -187500.02, -187500.02, -187500.02, 0.00, 0.00, 0.00
69, 187500.00, 187500.00, 187500.00, 37404.70, -187500.02, -187500.02, -187500.02, -187500.02, 0.00, 0.00, 0.00
70, 187500.00, 187500.00, 187500.00, 37369.41, -187500.02, -187500.02, -187500.02, -187500.02, 0.00, 0.00, 0.00
71, 187500.00, 187500.00, 187500.00, 37424.24, -187500.02, -187500.02, -187500.02, -187500.02, 0.00, 0.00, 0.00
72, 187500.00, 187500.00, 187500.00, 37457.97, -187500.02, -187500.02, -187500.02, -187500.02, 0.00, 0.00, 0.00
73, 187500.00, 187500.00, 187500.00, 37402.25, -187500.02, -187500.02, -187500.02, -187500.02, 0.00, 0.00, 0.00
74, 187500.00, 187500.00, 187500.00, 37367.31, -187500.02, -187500.02, -187500.02, -187500.02, -128.00, -224.00, 8656.00
75, 187500.00, 187500.00, 187500.00, 37420.53, -187500.02, -187500.02, -187500.02, -187500.02, 0.00, 0.00, 0.00
76, 187500.00, 187500.00, 187500.00, 37447.95, -187500.02, -187500.02, -187500.02, -187500.02, 0.00, 0.00, 0.00
77, 187500.00, 187500.00, 187500.00, 37411.72, -187500.02, -187500.02, -187500.02, -187500.02, 0.00, 0.00, 0.00
78, 187500.00, 187500.00, 187500.00, 37376.68, -187500.02, -187500.02, -187500.02, -187500.02, 0.00, 0.00, 0.00
79, 187500.00, 187500.00, 187500.00, 37420.64, -187500.02, -187500.02, -187500.02, -187500.02, 0.00, 0.00, 0.00
80, 187500.00, 187500.00, 187500.00, 37480.12, -187500.02, -187500.02, -187500.02, -187500.02, 0.00, 0.00, 0.00
81, 187500.00, 187500.00, 187500.00, 37454.53, -187500.02, -187500.02, -187500.02, -187500.02, 0.00, 0.00, 0.00
82, 187500.00, 187500.00, 187500.00, 37388.97, -187500.02, -187500.02, -187500.02, -187500.02, 0.00, 0.00, 0.00
83, 187500.00, 187500.00, 187500.00, 37400.41, -187500.02, -187500.02, -187500.02, -187500.02, 0.00, 0.00, 0.00
84, 187500.00, 187500.00, 187500.00, 37469.59, -187500.02, -187500.02, -187500.02, -187500.02, -160.00, -224.00, 8704.00
85, 187500.00, 187500.00, 187500.00, 37462.82, -187500.02, -187500.02, -187500.02, -187500.02, 0.00, 0.00, 0.00
86, 187500.00, 187500.00, 187500.00, 37402.07, -187500.02, -187500.02, -187500.02, -187500.02, 0.00, 0.00, 0.00
87, 187500.00, 187500.00, 187500.00, 37411.63, -187500.02, -187500.02, -187500.02, -187500.02, 0.00, 0.00, 0.00
88, 187500.00, 187500.00, 187500.00, 37470.22, -187500.02, -187500.02, -187500.02, -187500.02, 0.00, 0.00, 0.00
89, 187500.00, 187500.00, 187500.00, 37473.91, -187500.02, -187500.02, -187500.02, -187500.02, 0.00, 0.00, 0.00
90, 187500.00, 187500.00, 187500.00, 37415.34, -187500.02, -187500.02, -187500.02, -187500.02, 0.00, 0.00, 0.00
91, 187500.00, 187500.00, 187500.00, 37393.28, -187500.02, -187500.02, -187500.02, -187500.02, 0.00, 0.00, 0.00
92, 187500.00, 187500.00, 187500.00, 37467.91, -187500.02, -187500.02, -187500.02, -187500.02, 0.00, 0.00, 0.00
93, 187500.00, 187500.00, 187500.00, 37485.35, -187500.02, -187500.02, -187500.02, -187500.02, 0.00, 0.00, 0.00
94, 187500.00, 187500.00, 187500.00, 37412.08, -187500.02, -187500.02, -187500.02, -187500.02, -160.00, -224.00, 8704.00
95, 187500.00, 187500.00, 187500.00, 37400.93, -187500.02, -187500.02, -187500.02, -187500.02, 0.00, 0.00, 0.00
96, 187500.00, 187500.00, 187500.00, 37465.59, -187500.02, -187500.02, -187500.02, -187500.02, 0.00, 0.00, 0.00
97, 187500.00, 187500.00, 187500.00, 37500.68, -187500.02, -187500.02, -187500.02, -187500.02, 0.00, 0.00, 0.00
98, 187500.00, 187500.00, 187500.00, 37447.64, -187500.02, -187500.02, -187500.02, -187500.02, 0.00, 0.00, 0.00
99, 187500.00, 187500.00, 187500.00, 37391.05, -187500.02, -187500.02, -187500.02, -187500.02, 0.00, 0.00, 0.00
100, 187500.00, 187500.00, 187500.00, 37450.19, -187500.02, -187500.02, -187500.02, -187500.02, 0.00, 0.00, 0.00
101, 187500.00, 187500.00, 187500.00, 37508.19, -187500.02, -187500.02, -187500.02, -187500.02, 0.00, 0.00, 0.00
102, 187500.00, 187500.00, 187500.00, 37457.14, -187500.02, -187500.02, -187500.02, -187500.02, 0.00, 0.00, 0.00
103, 187500.00, 187500.00, 187500.00, 37410.14, -187500.02, -187500.02, -187500.02, -187500.02, 0.00, 0.00, 0.00
104, 187500.00, 187500.00, 187500.00, 37465.66, -187500.02, -187500.02, -187500.02, -187500.02, -160.00, -240.00, 8656.00
105, 187500.00, 187500.00, 187500.00, 37508.80, -187500.02, -187500.02, -187500.02, -187500.02, 0.00, 0.00, 0.00
106, 187500.00, 187500.00, 187500.00, 37486.31, -187500.02, -187500.02, -187500.02, -187500.02, 0.00, 0.00, 0.00
107, 187500.00, 187500.00, 187500.00, 37431.10, -187500.02, -187500.02, -187500.02, -187500.02, 0.00, 0.00, 0.00
108, 187500.00, 187500.00, 187500.00, 37444.51, -187500.02, -187500.02, -187500.02, -187500.02, 0.00, 0.00, 0.00
109, 187500.00, 187500.00, 187500.00, 37499.54, -187500.02, -187500.02, -187500.02, -187500.02, 0.00, 0.00, 0.00
110, 187500.00, 187500.00, 187500.00, 37461.32, -187500.02, -187500.02, -187500.02, -187500.02, 0.00, 0.00, 0.00
111, 187500.00, 187500.00, 187500.00, 37406.05, -187500.02, -187500.02, -187500.02, -187500.02, 0.00, 0.00, 0.00
112, 187500.00, 187500.00, 187500.00, 37443.77, -187500.02, -187500.02, -187500.02, -187500.02, 0.00, 0.00, 0.00
113, 187500.00, 187500.00, 187500.00, 37495.23, -187500.02, -187500.02, -187500.02, -187500.02, 0.00, 0.00, 0.00
114, 187500.00, 187500.00, 187500.00, 37484.75, -187500.02, -187500.02, -187500.02, -187500.02, -160.00, -256.00, 8672.00
115, 187500.00, 187500.00, 187500.00, 37429.65, -187500.02, -187500.02, -187500.02, -187500.02, 0.00, 0.00, 0.00
116, 187500.00, 187500.00, 187500.00, 37415.97, -187500.02, -187500.02, -187500.02, -187500.02, 0.00, 0.00, 0.00
117, 187500.00, 187500.00, 187500.00, 37471.16, -187500.02, -187500.02, -187500.02, -187500.02, 0.00, 0.00, 0.00
118, 187500.00, 187500.00, 187500.00, 37495.36, -187500.02, -187500.02, -187500.02, -187500.02, 0.00, 0.00, 0.00
119, 187500.00, 187500.00, 187500.00, 37444.16, -187500.02, -187500.02, -187500.02, -187500.02, 0.00, 0.00, 0.00
120, 187500.00, 187500.00, 187500.00, 37414.05, -187500.02, -187500.02, -187500.02, -187500.02, 0.00, 0.00, 0.00
121, 187500.00, 187500.00, 187500.00, 37466.75, -187500.02, -187500.02, -187500.02, -187500.02, 0.00, 0.00, 0.00
122, 187500.00, 187500.00, 187500.00, 37504.59, -187500.02, -187500.02, -187500.02, -187500.02, 0.00, 0.00, 0.00
123, 187500.00, 187500.00, 187500.00, 37457.21, -187500.02, -187500.02, -187500.02, -187500.02, 0.00, 0.00, 0.00
124, 187500.00, 187500.00, 187500.00, 37408.01, -187500.02, -187500.02, -187500.02, -187500.02, -176.00, -240.00, 8688.00
125, 187500.00, 187500.00, 187500.00, 37445.09, -187500.02, -187500.02, -187500.02, -187500.02, 0.00, 0.00, 0.00
126, 187500.00, 187500.00, 187500.00, 37490.45, -187500.02, -187500.02, -187500.02, -187500.02, 0.00, 0.00, 0.00
127, 187500.00, 187500.00, 187500.00, 37463.07, -187500.02, -187500.02, -187500.02, -187500.02, 0.00, 0.00, 0.00
128, 187500.00, 187500.00, 187500.00, 37404.21, -187500.02, -187500.02, -187500.02, -187500.02, 0.00, 0.00, 0.00
129, 187500.00, 187500.00, 187500.00, 37419.68, -187500.02, -187500.02, -187500.02, -187500.02, 0.00, 0.00, 0.00
130, 187500.00, 187500.00, 187500.00, 37461.48, -187500.02, -187500.02, -187500.02, -187500.02, 0.00, 0.00, 0.00
131, 187500.00, 187500.00, 187500.00, 37459.91, -187500.02, -187500.02, -187500.02, -187500.02, 0.00, 0.00, 0.00
132, 187500.00, 187500.00, 187500.00, 37400.26, -187500.02, -187500.02, -187500.02, -187500.02, 0.00, 0.00, 0.00
133, 187500.00, 187500.00, 187500.00, 37420.46, -187500.02, -187500.02, -187500.02, -187500.02, 0.00, 0.00, 0.00
134, 187500.00, 187500.00, 187500.00, 37479.25, -187500.02, -187500.02, -187500.02, -187500.02, -144.00, -224.00, 8688.00
135, 187500.00, 187500.00, 187500.00, 37466.39, -187500.02, -187500.02, -187500.02, -187500.02, 0.00, 0.00, 0.00
136, 187500.00, 187500.00, 187500.00, 37394.31, -187500.02, -187500.02, -187500.02, -187500.02, 0.00, 0.00, 0.00
137, 187500.00, 187500.00, 187500.00, 37389.82, -187500.02, -187500.02, -187500.02, -187500.02, 0.00, 0.00, 0.00
138, 187500.00, 187500.00, 187500.00, 37458.59, -187500.02, -187500.02, -187500.02, -187500.02, 0.00, 0.00, 0.00
139, 187500.00, 187500.00, 187500.00, 37463.04, -187500.02, -187500.02, -187500.02, -187500.02, 0.00, 0.00, 0.00
140, 187500.00, 187500.00, 187500.00, 37389.48, -187500.02, -187500.02, -187500.02, -187500.02, 0.00, 0.00, 0.00
141, 187500.00, 187500.00, 187500.00, 37363.33, -187500.02, -187500.02, -187500.02, -187500.02, 0.00, 0.00, 0.00
142, 187500.00, 187500.00, 187500.00, 37427.30, -187500.02, -187500.02, -187500.02, -187500.02, 0.00, 0.00, 0.00
143, 187500.00, 187500.00, 187500.00, 37456.23, -187500.02, -187500.02, -187500.02, -187500.02, 0.00, 0.00, 0.00
144, 187500.00, 187500.00, 187500.00, 37406.70, -187500.02, -187500.02, -187500.02, -187500.02, -160.00, -256.00, 8752.00
145, 187500.00, 187500.00, 187500.00, 37351.69, -187500.02, -187500.02, -187500.02, -187500.02, 0.00, 0.00, 0.00
146, 187500.00, 187500.00, 187500.00, 37391.20, -187500.02, -187500.02, -187500.02, -187500.02, 0.00, 0.00, 0.00
147, 187500.00, 187500.00, 187500.00, 37458.97, -187500.02, -187500.02, -187500.02, -187500.02, 0.00, 0.00, 0.00
148, 187500.00, 187500.00, 187500.00, 37395.20, -187500.02, -187500.02, -187500.02, -187500.02, 0.00, 0.00, 0.00
149, 187500.00, 187500.00, 187500.00, 37348.07, -187500.02, -187500.02, -187500.02, -187500.02, 0.00, 0.00, 0.00
150, 187500.00, 187500.00, 187500.00, 37414.79, -187500.02, -187500.02, -187500.02, -187500.02, 0.00, 0.00, 0.00
151, 187500.00, 187500.00, 187500.00, 37452.58, -187500.02, -187500.02, -187500.02, -187500.02, 0.00, 0.00, 0.00
152, 187500.00, 187500.00, 187500.00, 37416.06, -187500.02, -187500.02, -187500.02, -187500.02, 0.00, 0.00, 0.00
153, 187500.00, 187500.00, 187500.00, 37352.31, -187500.02, -187500.02, -187500.02, -187500.02, 0.00, 0.00, 0.00
154, 187500.00, 187500.00, 187500.00, 37368.88, -187500.02, -187500.02, -187500.02, -187500.02, -144.00, -256.00, 8736.00
155, 187500.00, 187500.00, 187500.00, 37437.07, -187500.02, -187500.02, -187500.02, -187500.02, 0.00, 0.00, 0.00
156, 187500.00, 187500.00, 187500.00, 37424.39, -187500.02, -187500.02, -187500.02, -187500.02, 0.00, 0.00, 0.00
157, 187500.00, 187500.00, 187500.00, 37358.77, -187500.02, -187500.02, -187500.02, -187500.02, 0.00, 0.00, 0.00
158, 187500.00, 187500.00, 187500.00, 37360.85, -187500.02, -187500.02, -187500.02, -187500.02, 0.00, 0.00, 0.00
159, 187500.00, 187500.00, 187500.00, 37415.25, -187500.02, -187500.02, -187500.02, -187500.02, 0.00, 0.00, 0.00
160, 187500.00, 187500.00, 187500.00, 37405.78, -187500.02, -187500.02, -187500.02, -187500.02, 0.00, 0.00, 0.00
161, 187500.00, 187500.00, 187500.00, 37364.32, -187500.02, -187500.02, -187500.02, -187500.02, 0.00, 0.00, 0.00
162, 187500.00, 187500.00, 187500.00, 37348.38, -187500.02, -187500.02, -187500.02, -187500.02, 0.00, 0.00, 0.00
163, 187500.00, 187500.00, 187500.00, 37402.09, -187500.02, -187500.02, -187500.02, -187500.02, 0.00, 0.00, 0.00
164, 187500.00, 187500.00, 187500.00, 37426.09, -187500.02, -187500.02, -187500.02, -187500.02, -128.00, -256.00, 8704.00
165, 187500.00, 187500.00, 187500.00, 37344.60, -187500.02, -187500.02, -187500.02, -187500.02, 0.00, 0.00, 0.00
166, 187500.00, 187500.00, 187500.00, 37328.29, -187500.02, -187500.02, -187500.02, -187500.02, 0.00, 0.00, 0.00
167, 187500.00, 187500.00, 187500.00, 37396.61, -187500.02, -187500.02, -187500.02, -187500.02, 0.00, 0.00, 0.00
168, 187500.00, 187500.00, 187500.00, 37417.33, -187500.02, -187500.02, -187500.02, -187500.02, 0.00, 0.00, 0.00
169, 187500.00, 187500.00, 187500.00, 37371.69, -187500.02, -187500.02, -187500.02, -187500.02, 0.00, 0.00, 0.00
170, 187500.00, 187500.00, 187500.00, 37343.28, -187500.02, -187500.02, -187500.02, -187500.02, 0.00, 0.00, 0.00
171, 187500.00, 187500.00, 187500.00, 37394.82, -187500.02, -187500.02, -187500.02, -187500.02, 0.00, 0.00, 0.00
172, 187500.00, 187500.00, 187500.00, 37432.82, -187500.02, -187500.02, -187500.02, -187500.02, 0.00, 0.00, 0.00
173, 187500.00, 187500.00, 187500.00, 37378.64, -187500.02, -187500.02, -187500.02, -187500.02, 0.00, 0.00, 0.00
174, 187500.00, 187500.00, 187500.00, 37328.15, -187500.02, -187500.02, -187500.02, -187500.02, 0.00, 0.00, 0.00
175, 187500.00, 187500.00, 187500.00, 37379.45, -187500.02, -187500.02, -187500.02, -187500.02, -144.00, -304.00, 8688.00
176, 187500.00, 187500.00, 187500.00, 37440.71, -187500.02, -187500.02, -187500.02, -187500.02, 0.00, 0.00, 0.00
177, 187500.00, 187500.00, 187500.00, 37398.60, -187500.02, -187500.02, -187500.02, -187500.02, 0.00, 0.00, 0.00
178, 187500.00, 187500.00, 187500.00, 37334.65, -187500.02, -187500.02, -187500.02, -187500.02, 0.00, 0.00, 0.00
179, 187500.00, 187500.00, 187500.00, 37354.52, -187500.02, -187500.02, -187500.02, -187500.02, 0.00, 0.00, 0.00
180, 187500.00, 187500.00, 187500.00, 37415.12, -187500.02, -187500.02, -187500.02, -187500.02, 0.00, 0.00, 0.00
181, 187500.00, 187500.00, 187500.00, 37420.24, -187500.02, -187500.02, -187500.02, -187500.02, 0.00, 0.00, 0.00
182, 187500.00, 187500.00, 187500.00, 37343.68, -187500.02, -187500.02, -187500.02, -187500.02, 0.00, 0.00, 0.00
183, 187500.00, 187500.00, 187500.00, 37343.75, -187500.02, -187500.02, -187500.02, -187500.02, 0.00, 0.00, 0.00
184, 187500.00, 187500.00, 187500.00, 37424.35, -187500.02, -187500.02, -187500.02, -187500.02, 0.00, 0.00, 0.00
185, 187500.00, 187500.00, 187500.00, 37442.25, -187500.02, -187500.02, -187500.02, -187500.02, -144.00, -320.00, 8624.00
186, 187500.00, 187500.00, 187500.00, 37383.83, -187500.02, -187500.02, -187500.02, -187500.02, 0.00, 0.00, 0.00
187, 187500.00, 187500.00, 187500.00, 37369.66, -187500.02, -187500.02, -187500.02, -187500.02, 0.00, 0.00, 0.00
188, 187500.00, 187500.00, 187500.00, 37438.95, -187500.02, -187500.02, -187500.02, -187500.02, 0.00, 0.00, 0.00
189, 187500.00, 187500.00, 187500.00, 37450.64, -187500.02, -187500.02, -187500.02, -187500.02, 0.00, 0.00, 0.00
190, 187500.00, 187500.00, 187500.00, 37381.05, -187500.02, -187500.02, -187500.02, -187500.02, 0.00, 0.00, 0.00
191, 187500.00, 187500.00, 187500.00, 37350.50, -187500.02, -187500.02, -187500.02, -187500.02, 0.00, 0.00, 0.00
192, 187500.00, 187500.00, 187500.00, 37432.62, -187500.02, -187500.02, -187500.02, -187500.02, 0.00, 0.00, 0.00
193, 187500.00, 187500.00, 187500.00, 37478.80, -187500.02, -187500.02, -187500.02, -187500.02, 0.00, 0.00, 0.00
194, 187500.00, 187500.00, 187500.00, 37418.12, -187500.02, -187500.02, -187500.02, -187500.02, 0.00, 0.00, 0.00
195, 187500.00, 187500.00, 187500.00, 37374.73, -187500.02, -187500.02, -187500.02, -187500.02, -160.00, -288.00, 8608.00
196, 187500.00, 187500.00, 187500.00, 37425.07, -187500.02, -187500.02, -187500.02, -187500.02, 0.00, 0.00, 0.00
197, 187500.00, 187500.00, 187500.00, 37472.39, -187500.02, -187500.02, -187500.02, -187500.02, 0.00, 0.00, 0.00
198, 187500.00, 187500.00, 187500.00, 37451.33, -187500.02, -187500.02, -187500.02, -187500.02, 0.00, 0.00, 0.00
199, 187500.00, 187500.00, 187500.00, 37404.73, -187500.02, -187500.02, -187500.02, -187500.02, 0.00, 0.00, 0.00
200, 187500.00, 187500.00, 187500.00, 37432.51, -187500.02, -187500.02, -187500.02, -187500.02, 0.00, 0.00, 0.00
201, 187500.00, 187500.00, 187500.00, 37501.22, -187500.02, -187500.02, -187500.02, -187500.02, 0.00, 0.00, 0.00
202, 187500.00, 187500.00, 187500.00, 37473.91, -187500.02, -187500.02, -187500.02, -187500.02, 0.00, 0.00, 0.00
203, 187500.00, 187500.00, 187500.00, 37396.48, -187500.02, -187500.02, -187500.02, -187500.02, 0.00, 0.00, 0.00
204, 187500.00, 187500.00, 187500.00, 37420.35, -187500.02, -187500.02, -187500.02, -187500.02, 0.00, 0.00, 0.00
205, 187500.00, 187500.00, 187500.00, 37486.58, -187500.02, -187500.02, -187500.02, -187500.02, -128.00, -288.00, 8672.00
206, 187500.00, 187500.00, 187500.00, 37474.82, -187500.02, -187500.02, -187500.02, -187500.02, 0.00, 0.00, 0.00
207, 187500.00, 187500.00, 187500.00, 37405.38, -187500.02, -187500.02, -187500.02, -187500.02, 0.00, 0.00, 0.00
208, 187500.00, 187500.00, 187500.00, 37419.01, -187500.02, -187500.02, -187500.02, -187500.02, 0.00, 0.00, 0.00
209, 187500.00, 187500.00, 187500.00, 37504.68, -187500.02, -187500.02, -187500.02, -187500.02, 0.00, 0.00, 0.00
210, 187500.00, 187500.00, 187500.00, 37491.03, -187500.02, -187500.02, -187500.02, -187500.02, 0.00, 0.00, 0.00
211, 187500.00, 187500.00, 187500.00, 37394.67, -187500.02, -187500.02, -187500.02, -187500.02, 0.00, 0.00, 0.00
212, 187500.00, 187500.00, 187500.00, 37400.97, -187500.02, -187500.02, -187500.02, -187500.02, 0.00, 0.00, 0.00
213, 187500.00, 187500.00, 187500.00, 37502.05, -187500.02, -187500.02, -187500.02, -187500.02, 0.00, 0.00, 0.00
214, 187500.00, 187500.00, 187500.00, 37518.36, -187500.02, -187500.02, -187500.02, -187500.02, 0.00, 0.00, 0.00
215, 187500.00, 187500.00, 187500.00, 37430.34, -187500.02, -187500.02, -187500.02, -187500.02, -160.00, -240.00, 8672.00
216, 187500.00, 187500.00, 187500.00, 37402.43, -187500.02, -187500.02, -187500.02, -187500.02, 0.00, 0.00, 0.00
217, 187500.00, 187500.00, 187500.00, 37474.35, -187500.02, -187500.02, -187500.02, -187500.02, 0.00, 0.00, 0.00
218, 187500.00, 187500.00, 187500.00, 37518.99, -187500.02, -187500.02, -187500.02, -187500.02, 0.00, 0.00, 0.00
219, 187500.00, 187500.00, 187500.00, 37453.79, -187500.02, -187500.02, -187500.02, -187500.02, 0.00, 0.00, 0.00
220, 187500.00, 187500.00, 187500.00, 37410.40, -187500.02, -187500.02, -187500.02, -187500.02, 0.00, 0.00, 0.00
221, 187500.00, 187500.00, 187500.00, 37458.08, -187500.02, -187500.02, -187500.02, -187500.02, 0.00, 0.00, 0.00
222, 187500.00, 187500.00, 187500.00, 37513.82, -187500.02, -187500.02, -187500.02, -187500.02, 0.00, 0.00, 0.00
223, 187500.00, 187500.00, 187500.00, 37455.78, -187500.02, -187500.02, -187500.02, -187500.02, 0.00, 0.00, 0.00
224, 187500.00, 187500.00, 187500.00, 37402.49, -187500.02, -187500.02, -187500.02, -187500.02, 0.00, 0.00, 0.00
225, 187500.00, 187500.00, 187500.00, 37439.82, -187500.02, -187500.02, -187500.02, -187500.02, -160.00, -256.00, 8656.00
226, 187500.00, 187500.00, 187500.00, 37496.08, -187500.02, -187500.02, -187500.02, -187500.02, 0.00, 0.00, 0.00
227, 187500.00, 187500.00, 187500.00, 37466.26, -187500.02, -187500.02, -187500.02, -187500.02, 0.00, 0.00, 0.00
228, 187500.00, 187500.00, 187500.00, 37399.52, -187500.02, -187500.02, -187500.02, -187500.02, 0.00, 0.00, 0.00
229, 187500.00, 187500.00, 187500.00, 37433.94, -187500.02, -187500.02, -187500.02, -187500.02, 0.00, 0.00, 0.00
230, 187500.00, 187500.00, 187500.00, 37493.44, -187500.02, -187500.02, -187500.02, -187500.02, 0.00, 0.00, 0.00
231, 187500.00, 187500.00, 187500.00, 37482.55, -187500.02, -187500.02, -187500.02, -187500.02, 0.00, 0.00, 0.00
232, 187500.00, 187500.00, 187500.00, 37418.83, -187500.02, -187500.02, -187500.02, -187500.02, 0.00, 0.00, 0.00
233, 187500.00, 187500.00, 187500.00, 37431.91, -187500.02, -187500.02, -187500.02, -187500.02, 0.00, 0.00, 0.00
234, 187500.00, 187500.00, 187500.00, 37489.64, -187500.02, -187500.02, -187500.02, -187500.02, 0.00, 0.00, 0.00
235, 187500.00, 187500.00, 187500.00, 37491.99, -187500.02, -187500.02, -187500.02, -187500.02, -176.00, -304.00, 8672.00
236, 187500.00, 187500.00, 187500.00, 37428.98, -187500.02, -187500.02, -187500.02, -187500.02, 0.00, 0.00, 0.00
237, 187500.00, 187500.00, 187500.00, 37408.17, -187500.02, -187500.02, -187500.02, -187500.02, 0.00, 0.00, 0.00
238, 187500.00, 187500.00, 187500.00, 37469.21, -187500.02, -187500.02, -187500.02, -187500.02, 0.00, 0.00, 0.00
239, 187500.00, 187500.00, 187500.00, 37511.68, -187500.02, -187500.02, -187500.02, -187500.02, 0.00, 0.00, 0.00
240, 187500.00, 187500.00, 187500.00, 37462.53, -187500.02, -187500.02, -187500.02, -187500.02, 0.00, 0.00, 0.00
241, 187500.00, 187500.00, 187500.00, 37421.13, -187500.02, -187500.02, -187500.02, -187500.02, 0.00, 0.00, 0.00
242, 187500.00, 187500.00, 187500.00, 37495.41, -187500.02, -187500.02, -187500.02, -187500.02, 0.00, 0.00, 0.00
243, 187500.00, 187500.00, 187500.00, 37511.50, -187500.02, -187500.02, -187500.02, -187500.02, 0.00, 0.00, 0.00
244, 187500.00, 187500.00, 187500.00, 37441.88, -187500.02, -187500.02, -187500.02, -187500.02, 0.00, 0.00, 0.00
245, 187500.00, 187500.00, 187500.00, 37422.09, -187500.02, -187500.02, -187500.02, -187500.02, -160.00, -304.00, 8656.00
246, 187500.00, 187500.00, 187500.00, 37495.74, -187500.02, -187500.02, -187500.02, -187500.02, 0.00, 0.00, 0.00
247, 187500.00, 187500.00, 187500.00, 37541.43, -187500.02, -187500.02, -187500.02, -187500.02, 0.00, 0.00, 0.00
248, 187500.00, 187500.00, 187500.00, 37493.33, -187500.02, -187500.02, -187500.02, -187500.02, 0.00, 0.00, 0.00
249, 187500.00, 187500.00, 187500.00, 37436.18, -187500.02, -187500.02, -187500.02, -187500.02, 0.00, 0.00, 0.00
250, 187500.00, 187500.00, 187500.00, 37457.52, -187500.02, -187500.02, -187500.02, -187500.02, 0.00, 0.00, 0.00
251, 187500.00, 187500.00, 187500.00, 37524.02, -187500.02, -187500.02, -187500.02, -187500.02, 0.00, 0.00, 0.00
252, 187500.00, 187500.00, 187500.00, 37507.30, -187500.02, -187500.02, -187500.02, -187500.02, 0.00, 0.00, 0.00
253, 187500.00, 187500.00, 187500.00, 37427.95, -187500.02, -187500.02, -187500.02, -187500.02, 0.00, 0.00, 0.00
254, 187500.00, 187500.00, 187500.00, 37436.58, -187500.02, -187500.02, -187500.02, -187500.02, 0.00, 0.00, 0.00
255, 187500.00, 187500.00, 187500.00, 37523.64, -187500.02, -187500.02, -187500.02, -187500.02, -144.00, -240.00, 8672.00
0, 187500.00, 187500.00, 187500.00, 37502.49, -187500.02, -187500.02, -187500.02, -187500.02, 0.00, 0.00, 0.00
1, 187500.00, 187500.00, 187500.00, 37428.49, -187500.02, -187500.02, -187500.02, -187500.02, 0.00, 0.00, 0.00
2, 187500.00, 187500.00, 187500.00, 37418.56, -187500.02, -187500.02, -187500.02, -187500.02, 0.00, 0.00, 0.00
3, 187500.00, 187500.00, 187500.00, 37478.11, -187500.02, -187500.02, -187500.02, -187500.02, 0.00, 0.00, 0.00
4, 187500.00, 187500.00, 187500.00, 37477.14, -187500.02, -187500.02, -187500.02, -187500.02, 0.00, 0.00, 0.00
5, 187500.00, 187500.00, 187500.00, 37426.56, -187500.02, -187500.02, -187500.02, -187500.02, 0.00, 0.00, 0.00
6, 187500.00, 187500.00, 187500.00, 37383.27, -187500.02, -187500.02, -187500.02, -187500.02, 0.00, 0.00, 0.00
7, 187500.00, 187500.00, 187500.00, 37456.36, -187500.02, -187500.02, -187500.02, -187500.02, 0.00, 0.00, 0.00
8, 187500.00, 187500.00, 187500.00, 37488.70, -187500.02, -187500.02, -187500.02, -187500.02, 0.00, 0.00, 0.00
9, 187500.00, 187500.00, 187500.00, 37422.41, -187500.02, -187500.02, -187500.02, -187500.02, -128.00, -256.00, 8704.00
10, 187500.00, 187500.00, 187500.00, 37414.83, -187500.02, -187500.02, -187500.02, -187500.02, 0.00, 0.00, 0.00
11, 187500.00, 187500.00, 187500.00, 37462.35, -187500.02, -187500.02, -187500.02, -187500.02, 0.00, 0.00, 0.00
12, 187500.00, 187500.00, 187500.00, 37479.54, -187500.02, -187500.02, -187500.02, -187500.02, 0.00, 0.00, 0.00
13, 187500.00, 187500.00, 187500.00, 37420.98, -187500.02, -187500.02, -187500.02, -187500.02, 0.00, 0.00, 0.00
14, 187500.00, 187500.00, 187500.00, 37364.74, -187500.02, -187500.02, -187500.02, -187500.02, 0.00, 0.00, 0.00
15, 187500.00, 187500.00, 187500.00, 37413.29, -187500.02, -187500.02, -187500.02, -187500.02, 0.00, 0.00, 0.00
16, 187500.00, 187500.00, 187500.00, 37459.80, -187500.02, -187500.02, -187500.02, -187500.02, 0.00, 0.00, 0.00
17, 187500.00, 187500.00, 187500.00, 37431.28, -187500.02, -187500.02, -187500.02, -187500.02, 0.00, 0.00, 0.00
18, 187500.00, 187500.00, 187500.00, 37390.18, -187500.02, -187500.02, -187500.02, -187500.02, 0.00, 0.00, 0.00
19, 187500.00, 187500.00, 187500.00, 37400.30, -187500.02, -187500.02, -187500.02, -187500.02, -96.00, -208.00, 8672.00
20, 187500.00, 187500.00, 187500.00, 37453.90, -187500.02, -187500.02, -187500.02, -187500.02, 0.00, 0.00, 0.00
21, 187500.00, 187500.00, 187500.00, 37443.39, -187500.02, -187500.02, -187500.02, -187500.02, 0.00, 0.00, 0.00
22, 187500.00, 187500.00, 187500.00, 37381.01, -187500.02, -187500.02, -187500.02, -187500.02, 0.00, 0.00, 0.00
23, 187500.00, 187500.00, 187500.00, 37370.48, -187500.02, -187500.02, -187500.02, -187500.02, 0.00, 0.00, 0.00
24, 187500.00, 187500.00, 187500.00, 37436.33, -187500.02, -187500.02, -187500.02, -187500.02, 0.00, 0.00, 0.00
25, 187500.00, 187500.00, 187500.00, 37452.25, -187500.02, -187500.02, -187500.02, -187500.02, 0.00, 0.00, 0.00
26, 187500.00, 187500.00, 187500.00, 37370.68, -187500.02, -187500.02, -187500.02, -187500.02, 0.00, 0.00, 0.00
27, 187500.00, 187500.00, 187500.00, 37379.16, -187500.02, -187500.02, -187500.02, -187500.02, 0.00, 0.00, 0.00
28, 187500.00, 187500.00, 187500.00, 37433.32, -187500.02, -187500.02, -187500.02, -187500.02, 0.00, 0.00, 0.00
29, 187500.00, 187500.00, 187500.00, 37439.59, -187500.02, -187500.02, -187500.02, -187500.02, -80.00, -288.00, 8688.00
30, 187500.00, 187500.00, 187500.00, 37400.95, -187500.02, -187500.02, -187500.02, -187500.02, 0.00, 0.00, 0.00
31, 187500.00, 187500.00, 187500.00, 37373.08, -187500.02, -187500.02, -187500.02, -187500.02, 0.00, 0.00, 0.00
